# Cut-survival probability for calcium-recoil events
# within the acceptance region for dark-matter searches
# Energy [keV] | Cut-survival probability
 0	0
 0.0040004	0
 0.0080008	0
 0.0120012	0
 0.0160016	0
 0.020002	0
 0.0240024	0
 0.0280028	0
 0.0320032	0
 0.0360036	0
 0.040004	0
 0.0440044	0
 0.0480048	0
 0.0520052	0
 0.0560056	0
 0.060006	0
 0.0640064	0
 0.0680068	0
 0.0720072	0
 0.0760076	0
 0.080008	0
 0.0840084	0
 0.0880088	0
 0.0920092	0
 0.0960096	0
 0.10001	0
 0.10401	0
 0.108011	0
 0.112011	0
 0.116012	0
 0.120012	0
 0.124012	0
 0.128013	0
 0.132013	0
 0.136014	0
 0.140014	0
 0.144014	0
 0.148015	0
 0.152015	0
 0.156016	0
 0.160016	0
 0.164016	0
 0.168017	0
 0.172017	0
 0.176018	0
 0.180018	0
 0.184018	0
 0.188019	0
 0.192019	0
 0.19602	0
 0.20002	0
 0.20402	0
 0.208021	0
 0.212021	0
 0.216022	0
 0.220022	0
 0.224022	0
 0.228023	0
 0.232023	0
 0.236024	0
 0.240024	0
 0.244024	0
 0.248025	0
 0.252025	0
 0.256026	0
 0.260026	0
 0.264026	0
 0.268027	0
 0.272027	0
 0.276028	0
 0.280028	0
 0.284028	0
 0.288029	0
 0.292029	0
 0.29603	0
 0.30003	0
 0.30403	0
 0.308031	0
 0.312031	0
 0.316032	0
 0.320032	0
 0.324032	0
 0.328033	0
 0.332033	0
 0.336034	0
 0.340034	0
 0.344034	0
 0.348035	0
 0.352035	0
 0.356036	0
 0.360036	0
 0.364036	0
 0.368037	0
 0.372037	0
 0.376038	0
 0.380038	0
 0.384038	0
 0.388039	0
 0.392039	0
 0.39604	0
 0.40004	0
 0.40404	0
 0.408041	0
 0.412041	0
 0.416042	0
 0.420042	0
 0.424042	0
 0.428043	0
 0.432043	0
 0.436044	0
 0.440044	0
 0.444044	0
 0.448045	0
 0.452045	0
 0.456046	0
 0.460046	0
 0.464046	0
 0.468047	0
 0.472047	0
 0.476048	0
 0.480048	0
 0.484048	0
 0.488049	0
 0.492049	0
 0.49605	0
 0.50005	0
 0.50405	0
 0.508051	0
 0.512051	0
 0.516052	0
 0.520052	0
 0.524052	0
 0.528053	0
 0.532053	0
 0.536054	0
 0.540054	0
 0.544054	0
 0.548055	0
 0.552055	0
 0.556056	0
 0.560056	0
 0.564056	0
 0.568057	0
 0.572057	0
 0.576058	0
 0.580058	0
 0.584058	0
 0.588059	0
 0.592059	0
 0.59606	0
 0.60006	0
 0.60406	0.0798102
 0.608061	0.0815137
 0.612061	0.0832189
 0.616062	0.0849256
 0.620062	0.0866338
 0.624062	0.0883436
 0.628063	0.090055
 0.632063	0.091768
 0.636064	0.0934825
 0.640064	0.0951986
 0.644064	0.0969162
 0.648065	0.0986354
 0.652065	0.100356
 0.656066	0.102078
 0.660066	0.103802
 0.664066	0.105528
 0.668067	0.107255
 0.672067	0.108983
 0.676068	0.110713
 0.680068	0.112445
 0.684068	0.114178
 0.688069	0.115912
 0.692069	0.117648
 0.69607	0.119386
 0.70007	0.121128
 0.70407	0.12301
 0.708071	0.124894
 0.712071	0.12678
 0.716072	0.128667
 0.720072	0.130556
 0.724072	0.132446
 0.728073	0.134338
 0.732073	0.136232
 0.736074	0.138128
 0.740074	0.140025
 0.744074	0.141924
 0.748075	0.143824
 0.752075	0.145726
 0.756076	0.14763
 0.760076	0.149535
 0.764076	0.151442
 0.768077	0.153351
 0.772077	0.155261
 0.776078	0.157173
 0.780078	0.159086
 0.784078	0.161001
 0.788079	0.162918
 0.792079	0.164836
 0.79608	0.166756
 0.80008	0.168675
 0.80408	0.170468
 0.808081	0.172262
 0.812081	0.174058
 0.816082	0.175855
 0.820082	0.177653
 0.824082	0.179453
 0.828083	0.181255
 0.832083	0.183058
 0.836084	0.184863
 0.840084	0.186669
 0.844084	0.188476
 0.848085	0.190285
 0.852085	0.192095
 0.856086	0.193907
 0.860086	0.195721
 0.864086	0.197536
 0.868087	0.199352
 0.872087	0.20117
 0.876088	0.202989
 0.880088	0.20481
 0.884088	0.206632
 0.888089	0.208456
 0.892089	0.210281
 0.89609	0.212107
 0.90009	0.21393
 0.90409	0.215537
 0.908091	0.217145
 0.912091	0.218754
 0.916092	0.220364
 0.920092	0.221976
 0.924092	0.223589
 0.928093	0.225203
 0.932093	0.226818
 0.936094	0.228434
 0.940094	0.230052
 0.944094	0.231671
 0.948095	0.233292
 0.952095	0.234913
 0.956096	0.236536
 0.960096	0.23816
 0.964096	0.239785
 0.968097	0.241412
 0.972097	0.24304
 0.976098	0.244669
 0.980098	0.246299
 0.984098	0.24793
 0.988099	0.249563
 0.992099	0.251197
 0.9961	0.252832
 1.0001	0.254459
 1.0041	0.255722
 1.0081	0.256986
 1.0121	0.258251
 1.0161	0.259517
 1.0201	0.260784
 1.0241	0.262051
 1.0281	0.26332
 1.0321	0.26459
 1.0361	0.26586
 1.0401	0.267131
 1.0441	0.268403
 1.0481	0.269676
 1.05211	0.27095
 1.05611	0.272225
 1.06011	0.273501
 1.06411	0.274777
 1.06811	0.276055
 1.07211	0.277333
 1.07611	0.278613
 1.08011	0.279893
 1.08411	0.281174
 1.08811	0.282456
 1.09211	0.283739
 1.09611	0.285022
 1.10011	0.286307
 1.10411	0.287592
 1.10811	0.288879
 1.11211	0.290166
 1.11611	0.291454
 1.12011	0.292743
 1.12411	0.294033
 1.12811	0.295324
 1.13211	0.296615
 1.13611	0.297908
 1.14011	0.299201
 1.14411	0.300496
 1.14811	0.301791
 1.15212	0.303087
 1.15612	0.304384
 1.16012	0.305681
 1.16412	0.30698
 1.16812	0.308279
 1.17212	0.30958
 1.17612	0.310881
 1.18012	0.312183
 1.18412	0.313486
 1.18812	0.31479
 1.19212	0.316094
 1.19612	0.3174
 1.20012	0.318695
 1.20412	0.319642
 1.20812	0.32059
 1.21212	0.321538
 1.21612	0.322487
 1.22012	0.323436
 1.22412	0.324386
 1.22812	0.325337
 1.23212	0.326288
 1.23612	0.32724
 1.24012	0.328192
 1.24412	0.329144
 1.24812	0.330098
 1.25213	0.331052
 1.25613	0.332006
 1.26013	0.332961
 1.26413	0.333916
 1.26813	0.334873
 1.27213	0.335829
 1.27613	0.336786
 1.28013	0.337744
 1.28413	0.338702
 1.28813	0.339661
 1.29213	0.340621
 1.29613	0.341581
 1.30013	0.342541
 1.30413	0.343502
 1.30813	0.344464
 1.31213	0.345426
 1.31613	0.346389
 1.32013	0.347352
 1.32413	0.348316
 1.32813	0.34928
 1.33213	0.350245
 1.33613	0.351211
 1.34013	0.352177
 1.34413	0.353143
 1.34813	0.35411
 1.35214	0.355078
 1.35614	0.356046
 1.36014	0.357015
 1.36414	0.357984
 1.36814	0.358954
 1.37214	0.359924
 1.37614	0.360895
 1.38014	0.361867
 1.38414	0.362839
 1.38814	0.363811
 1.39214	0.364784
 1.39614	0.365758
 1.40014	0.366724
 1.40414	0.367454
 1.40814	0.368184
 1.41214	0.368915
 1.41614	0.369646
 1.42014	0.370377
 1.42414	0.371109
 1.42814	0.371841
 1.43214	0.372573
 1.43614	0.373306
 1.44014	0.374039
 1.44414	0.374773
 1.44814	0.375507
 1.45215	0.376241
 1.45615	0.376975
 1.46015	0.37771
 1.46415	0.378446
 1.46815	0.379181
 1.47215	0.379917
 1.47615	0.380653
 1.48015	0.38139
 1.48415	0.382127
 1.48815	0.382864
 1.49215	0.383602
 1.49615	0.38434
 1.50015	0.385078
 1.50415	0.385817
 1.50815	0.386556
 1.51215	0.387295
 1.51615	0.388035
 1.52015	0.388775
 1.52415	0.389515
 1.52815	0.390256
 1.53215	0.390997
 1.53615	0.391738
 1.54015	0.39248
 1.54415	0.393222
 1.54815	0.393964
 1.55216	0.394707
 1.55616	0.39545
 1.56016	0.396193
 1.56416	0.396937
 1.56816	0.397681
 1.57216	0.398425
 1.57616	0.39917
 1.58016	0.399915
 1.58416	0.400661
 1.58816	0.401406
 1.59216	0.402152
 1.59616	0.402899
 1.60016	0.403641
 1.60416	0.404274
 1.60816	0.404907
 1.61216	0.40554
 1.61616	0.406174
 1.62016	0.406808
 1.62416	0.407442
 1.62816	0.408076
 1.63216	0.408711
 1.63616	0.409346
 1.64016	0.409981
 1.64416	0.410616
 1.64816	0.411252
 1.65217	0.411887
 1.65617	0.412524
 1.66017	0.41316
 1.66417	0.413796
 1.66817	0.414433
 1.67217	0.41507
 1.67617	0.415708
 1.68017	0.416345
 1.68417	0.416983
 1.68817	0.417621
 1.69217	0.418259
 1.69617	0.418898
 1.70017	0.419537
 1.70417	0.420176
 1.70817	0.420815
 1.71217	0.421454
 1.71617	0.422094
 1.72017	0.422734
 1.72417	0.423374
 1.72817	0.424015
 1.73217	0.424655
 1.73617	0.425296
 1.74017	0.425937
 1.74417	0.426579
 1.74817	0.427221
 1.75218	0.427862
 1.75618	0.428505
 1.76018	0.429147
 1.76418	0.42979
 1.76818	0.430432
 1.77218	0.431076
 1.77618	0.431719
 1.78018	0.432362
 1.78418	0.433006
 1.78818	0.43365
 1.79218	0.434295
 1.79618	0.434939
 1.80018	0.435579
 1.80418	0.436123
 1.80818	0.436668
 1.81218	0.437212
 1.81618	0.437757
 1.82018	0.438301
 1.82418	0.438846
 1.82818	0.439391
 1.83218	0.439936
 1.83618	0.440482
 1.84018	0.441027
 1.84418	0.441573
 1.84818	0.442119
 1.85219	0.442665
 1.85619	0.443211
 1.86019	0.443758
 1.86419	0.444304
 1.86819	0.444851
 1.87219	0.445398
 1.87619	0.445945
 1.88019	0.446492
 1.88419	0.447039
 1.88819	0.447587
 1.89219	0.448135
 1.89619	0.448682
 1.90019	0.44923
 1.90419	0.449779
 1.90819	0.450327
 1.91219	0.450875
 1.91619	0.451424
 1.92019	0.451973
 1.92419	0.452522
 1.92819	0.453071
 1.93219	0.45362
 1.93619	0.45417
 1.94019	0.45472
 1.94419	0.455269
 1.94819	0.455819
 1.9522	0.456369
 1.9562	0.45692
 1.9602	0.45747
 1.9642	0.458021
 1.9682	0.458571
 1.9722	0.459122
 1.9762	0.459673
 1.9802	0.460225
 1.9842	0.460776
 1.9882	0.461328
 1.9922	0.461879
 1.9962	0.462431
 2.0002	0.462978
 2.0042	0.463415
 2.0082	0.463853
 2.0122	0.46429
 2.0162	0.464728
 2.0202	0.465166
 2.0242	0.465604
 2.0282	0.466042
 2.0322	0.46648
 2.0362	0.466918
 2.0402	0.467356
 2.0442	0.467795
 2.0482	0.468233
 2.05221	0.468672
 2.05621	0.46911
 2.06021	0.469549
 2.06421	0.469988
 2.06821	0.470426
 2.07221	0.470865
 2.07621	0.471304
 2.08021	0.471743
 2.08421	0.472183
 2.08821	0.472622
 2.09221	0.473061
 2.09621	0.473501
 2.10021	0.47394
 2.10421	0.47438
 2.10821	0.474819
 2.11221	0.475259
 2.11621	0.475699
 2.12021	0.476139
 2.12421	0.476579
 2.12821	0.477019
 2.13221	0.477459
 2.13621	0.477899
 2.14021	0.478339
 2.14421	0.47878
 2.14821	0.47922
 2.15222	0.479661
 2.15622	0.480101
 2.16022	0.480542
 2.16422	0.480983
 2.16822	0.481424
 2.17222	0.481864
 2.17622	0.482306
 2.18022	0.482747
 2.18422	0.483188
 2.18822	0.483629
 2.19222	0.48407
 2.19622	0.484512
 2.20022	0.48495
 2.20422	0.485328
 2.20822	0.485706
 2.21222	0.486085
 2.21622	0.486463
 2.22022	0.486842
 2.22422	0.48722
 2.22822	0.487599
 2.23222	0.487978
 2.23622	0.488356
 2.24022	0.488735
 2.24422	0.489114
 2.24822	0.489492
 2.25223	0.489871
 2.25623	0.49025
 2.26023	0.490629
 2.26423	0.491008
 2.26823	0.491387
 2.27223	0.491766
 2.27623	0.492145
 2.28023	0.492524
 2.28423	0.492903
 2.28823	0.493282
 2.29223	0.493661
 2.29623	0.494041
 2.30023	0.49442
 2.30423	0.494799
 2.30823	0.495179
 2.31223	0.495558
 2.31623	0.495937
 2.32023	0.496317
 2.32423	0.496696
 2.32823	0.497076
 2.33223	0.497455
 2.33623	0.497835
 2.34023	0.498215
 2.34423	0.498594
 2.34823	0.498974
 2.35224	0.499354
 2.35624	0.499734
 2.36024	0.500114
 2.36424	0.500493
 2.36824	0.500873
 2.37224	0.501253
 2.37624	0.501633
 2.38024	0.502013
 2.38424	0.502393
 2.38824	0.502773
 2.39224	0.503154
 2.39624	0.503534
 2.40024	0.503911
 2.40424	0.504247
 2.40824	0.504583
 2.41224	0.504919
 2.41624	0.505255
 2.42024	0.505591
 2.42424	0.505928
 2.42824	0.506264
 2.43224	0.5066
 2.43624	0.506936
 2.44024	0.507272
 2.44424	0.507608
 2.44824	0.507944
 2.45225	0.50828
 2.45625	0.508616
 2.46025	0.508952
 2.46425	0.509289
 2.46825	0.509625
 2.47225	0.509961
 2.47625	0.510297
 2.48025	0.510633
 2.48425	0.51097
 2.48825	0.511306
 2.49225	0.511642
 2.49625	0.511978
 2.50025	0.512314
 2.50425	0.512651
 2.50825	0.512987
 2.51225	0.513323
 2.51625	0.51366
 2.52025	0.513996
 2.52425	0.514332
 2.52825	0.514669
 2.53225	0.515005
 2.53625	0.515341
 2.54025	0.515678
 2.54425	0.516014
 2.54825	0.51635
 2.55226	0.516687
 2.55626	0.517023
 2.56026	0.51736
 2.56426	0.517696
 2.56826	0.518032
 2.57226	0.518369
 2.57626	0.518705
 2.58026	0.519042
 2.58426	0.519378
 2.58826	0.519715
 2.59226	0.520051
 2.59626	0.520388
 2.60026	0.520721
 2.60426	0.521004
 2.60826	0.521287
 2.61226	0.52157
 2.61626	0.521854
 2.62026	0.522137
 2.62426	0.52242
 2.62826	0.522703
 2.63226	0.522986
 2.63626	0.523269
 2.64026	0.523552
 2.64426	0.523835
 2.64826	0.524118
 2.65227	0.524401
 2.65627	0.524684
 2.66027	0.524967
 2.66427	0.52525
 2.66827	0.525533
 2.67227	0.525816
 2.67627	0.526098
 2.68027	0.526381
 2.68427	0.526664
 2.68827	0.526947
 2.69227	0.52723
 2.69627	0.527512
 2.70027	0.527795
 2.70427	0.528078
 2.70827	0.528361
 2.71227	0.528643
 2.71627	0.528926
 2.72027	0.529209
 2.72427	0.529491
 2.72827	0.529774
 2.73227	0.530056
 2.73627	0.530339
 2.74027	0.530622
 2.74427	0.530904
 2.74827	0.531187
 2.75228	0.531469
 2.75628	0.531752
 2.76028	0.532034
 2.76428	0.532316
 2.76828	0.532599
 2.77228	0.532881
 2.77628	0.533164
 2.78028	0.533446
 2.78428	0.533728
 2.78828	0.534011
 2.79228	0.534293
 2.79628	0.534575
 2.80028	0.534855
 2.80428	0.535108
 2.80828	0.535361
 2.81228	0.535614
 2.81628	0.535867
 2.82028	0.53612
 2.82428	0.536372
 2.82828	0.536625
 2.83228	0.536878
 2.83628	0.537131
 2.84028	0.537383
 2.84428	0.537636
 2.84828	0.537888
 2.85229	0.538141
 2.85629	0.538393
 2.86029	0.538646
 2.86429	0.538898
 2.86829	0.539151
 2.87229	0.539403
 2.87629	0.539655
 2.88029	0.539908
 2.88429	0.54016
 2.88829	0.540412
 2.89229	0.540664
 2.89629	0.540916
 2.90029	0.541168
 2.90429	0.541421
 2.90829	0.541673
 2.91229	0.541925
 2.91629	0.542177
 2.92029	0.542428
 2.92429	0.54268
 2.92829	0.542932
 2.93229	0.543184
 2.93629	0.543436
 2.94029	0.543688
 2.94429	0.543939
 2.94829	0.544191
 2.9523	0.544443
 2.9563	0.544694
 2.9603	0.544946
 2.9643	0.545198
 2.9683	0.545449
 2.9723	0.545701
 2.9763	0.545952
 2.9803	0.546203
 2.9843	0.546455
 2.9883	0.546706
 2.9923	0.546958
 2.9963	0.547209
 3.0003	0.547457
 3.0043	0.547674
 3.0083	0.54789
 3.0123	0.548106
 3.0163	0.548322
 3.0203	0.548538
 3.0243	0.548754
 3.0283	0.54897
 3.0323	0.549186
 3.0363	0.549402
 3.0403	0.549618
 3.0443	0.549833
 3.0483	0.550049
 3.05231	0.550265
 3.05631	0.55048
 3.06031	0.550696
 3.06431	0.550911
 3.06831	0.551127
 3.07231	0.551342
 3.07631	0.551558
 3.08031	0.551773
 3.08431	0.551988
 3.08831	0.552203
 3.09231	0.552418
 3.09631	0.552633
 3.10031	0.552848
 3.10431	0.553063
 3.10831	0.553278
 3.11231	0.553493
 3.11631	0.553708
 3.12031	0.553923
 3.12431	0.554138
 3.12831	0.554352
 3.13231	0.554567
 3.13631	0.554781
 3.14031	0.554996
 3.14431	0.55521
 3.14831	0.555425
 3.15232	0.555639
 3.15632	0.555853
 3.16032	0.556068
 3.16432	0.556282
 3.16832	0.556496
 3.17232	0.55671
 3.17632	0.556924
 3.18032	0.557138
 3.18432	0.557352
 3.18832	0.557566
 3.19232	0.55778
 3.19632	0.557994
 3.20032	0.558208
 3.20432	0.558421
 3.20832	0.558635
 3.21232	0.558849
 3.21632	0.559062
 3.22032	0.559276
 3.22432	0.559489
 3.22832	0.559703
 3.23232	0.559916
 3.23632	0.560129
 3.24032	0.560343
 3.24432	0.560556
 3.24832	0.560769
 3.25233	0.560982
 3.25633	0.561195
 3.26033	0.561408
 3.26433	0.561621
 3.26833	0.561834
 3.27233	0.562047
 3.27633	0.56226
 3.28033	0.562472
 3.28433	0.562685
 3.28833	0.562898
 3.29233	0.563111
 3.29633	0.563323
 3.30033	0.563536
 3.30433	0.563748
 3.30833	0.563961
 3.31233	0.564173
 3.31633	0.564385
 3.32033	0.564598
 3.32433	0.56481
 3.32833	0.565022
 3.33233	0.565234
 3.33633	0.565446
 3.34033	0.565658
 3.34433	0.56587
 3.34833	0.566082
 3.35234	0.566294
 3.35634	0.566506
 3.36034	0.566718
 3.36434	0.566929
 3.36834	0.567141
 3.37234	0.567353
 3.37634	0.567564
 3.38034	0.567776
 3.38434	0.567987
 3.38834	0.568199
 3.39234	0.56841
 3.39634	0.568622
 3.40034	0.568833
 3.40434	0.569044
 3.40834	0.569256
 3.41234	0.569467
 3.41634	0.569678
 3.42034	0.569889
 3.42434	0.5701
 3.42834	0.570311
 3.43234	0.570522
 3.43634	0.570733
 3.44034	0.570944
 3.44434	0.571154
 3.44834	0.571365
 3.45235	0.571576
 3.45635	0.571786
 3.46035	0.571997
 3.46435	0.572208
 3.46835	0.572418
 3.47235	0.572629
 3.47635	0.572839
 3.48035	0.573049
 3.48435	0.57326
 3.48835	0.57347
 3.49235	0.57368
 3.49635	0.57389
 3.50035	0.574098
 3.50435	0.574277
 3.50835	0.574456
 3.51235	0.574635
 3.51635	0.574813
 3.52035	0.574992
 3.52435	0.575171
 3.52835	0.57535
 3.53235	0.575528
 3.53635	0.575707
 3.54035	0.575885
 3.54435	0.576064
 3.54835	0.576242
 3.55236	0.57642
 3.55636	0.576599
 3.56036	0.576777
 3.56436	0.576955
 3.56836	0.577133
 3.57236	0.577311
 3.57636	0.577489
 3.58036	0.577667
 3.58436	0.577845
 3.58836	0.578023
 3.59236	0.5782
 3.59636	0.578378
 3.60036	0.578555
 3.60436	0.578733
 3.60836	0.57891
 3.61236	0.579088
 3.61636	0.579265
 3.62036	0.579443
 3.62436	0.57962
 3.62836	0.579797
 3.63236	0.579974
 3.63636	0.580151
 3.64036	0.580328
 3.64436	0.580505
 3.64836	0.580682
 3.65237	0.580859
 3.65637	0.581035
 3.66037	0.581212
 3.66437	0.581389
 3.66837	0.581565
 3.67237	0.581742
 3.67637	0.581918
 3.68037	0.582095
 3.68437	0.582271
 3.68837	0.582447
 3.69237	0.582623
 3.69637	0.5828
 3.70037	0.582976
 3.70437	0.583152
 3.70837	0.583328
 3.71237	0.583504
 3.71637	0.583679
 3.72037	0.583855
 3.72437	0.584031
 3.72837	0.584207
 3.73237	0.584382
 3.73637	0.584558
 3.74037	0.584733
 3.74437	0.584909
 3.74837	0.585084
 3.75238	0.58526
 3.75638	0.585435
 3.76038	0.58561
 3.76438	0.585785
 3.76838	0.58596
 3.77238	0.586135
 3.77638	0.58631
 3.78038	0.586485
 3.78438	0.58666
 3.78838	0.586835
 3.79238	0.58701
 3.79638	0.587184
 3.80038	0.587359
 3.80438	0.587533
 3.80838	0.587708
 3.81238	0.587882
 3.81638	0.588057
 3.82038	0.588231
 3.82438	0.588405
 3.82838	0.58858
 3.83238	0.588754
 3.83638	0.588928
 3.84038	0.589102
 3.84438	0.589276
 3.84838	0.58945
 3.85239	0.589624
 3.85639	0.589798
 3.86039	0.589971
 3.86439	0.590145
 3.86839	0.590319
 3.87239	0.590492
 3.87639	0.590666
 3.88039	0.590839
 3.88439	0.591013
 3.88839	0.591186
 3.89239	0.59136
 3.89639	0.591533
 3.90039	0.591706
 3.90439	0.591879
 3.90839	0.592052
 3.91239	0.592225
 3.91639	0.592398
 3.92039	0.592571
 3.92439	0.592744
 3.92839	0.592917
 3.93239	0.59309
 3.93639	0.593262
 3.94039	0.593435
 3.94439	0.593607
 3.94839	0.59378
 3.9524	0.593952
 3.9564	0.594125
 3.9604	0.594297
 3.9644	0.594469
 3.9684	0.594642
 3.9724	0.594814
 3.9764	0.594986
 3.9804	0.595158
 3.9844	0.59533
 3.9884	0.595502
 3.9924	0.595674
 3.9964	0.595846
 4.0004	0.596016
 4.0044	0.596172
 4.0084	0.596328
 4.0124	0.596484
 4.0164	0.596639
 4.0204	0.596795
 4.0244	0.596951
 4.0284	0.597106
 4.0324	0.597262
 4.0364	0.597417
 4.0404	0.597573
 4.0444	0.597728
 4.0484	0.597883
 4.05241	0.598039
 4.05641	0.598194
 4.06041	0.598349
 4.06441	0.598504
 4.06841	0.598659
 4.07241	0.598814
 4.07641	0.598969
 4.08041	0.599123
 4.08441	0.599278
 4.08841	0.599433
 4.09241	0.599587
 4.09641	0.599742
 4.10041	0.599896
 4.10441	0.600051
 4.10841	0.600205
 4.11241	0.600359
 4.11641	0.600514
 4.12041	0.600668
 4.12441	0.600822
 4.12841	0.600976
 4.13241	0.60113
 4.13641	0.601284
 4.14041	0.601438
 4.14441	0.601592
 4.14841	0.601745
 4.15242	0.601899
 4.15642	0.602053
 4.16042	0.602206
 4.16442	0.60236
 4.16842	0.602513
 4.17242	0.602667
 4.17642	0.60282
 4.18042	0.602973
 4.18442	0.603126
 4.18842	0.60328
 4.19242	0.603433
 4.19642	0.603586
 4.20042	0.603739
 4.20442	0.603892
 4.20842	0.604044
 4.21242	0.604197
 4.21642	0.60435
 4.22042	0.604503
 4.22442	0.604655
 4.22842	0.604808
 4.23242	0.60496
 4.23642	0.605113
 4.24042	0.605265
 4.24442	0.605417
 4.24842	0.60557
 4.25243	0.605722
 4.25643	0.605874
 4.26043	0.606026
 4.26443	0.606178
 4.26843	0.60633
 4.27243	0.606482
 4.27643	0.606634
 4.28043	0.606785
 4.28443	0.606937
 4.28843	0.607089
 4.29243	0.60724
 4.29643	0.607392
 4.30043	0.607543
 4.30443	0.607695
 4.30843	0.607846
 4.31243	0.607998
 4.31643	0.608149
 4.32043	0.6083
 4.32443	0.608451
 4.32843	0.608602
 4.33243	0.608753
 4.33643	0.608904
 4.34043	0.609055
 4.34443	0.609206
 4.34843	0.609357
 4.35244	0.609507
 4.35644	0.609658
 4.36044	0.609809
 4.36444	0.609959
 4.36844	0.61011
 4.37244	0.61026
 4.37644	0.61041
 4.38044	0.610561
 4.38444	0.610711
 4.38844	0.610861
 4.39244	0.611011
 4.39644	0.611161
 4.40044	0.611312
 4.40444	0.611461
 4.40844	0.611611
 4.41244	0.611761
 4.41644	0.611911
 4.42044	0.612061
 4.42444	0.61221
 4.42844	0.61236
 4.43244	0.61251
 4.43644	0.612659
 4.44044	0.612809
 4.44444	0.612958
 4.44844	0.613107
 4.45245	0.613257
 4.45645	0.613406
 4.46045	0.613555
 4.46445	0.613704
 4.46845	0.613853
 4.47245	0.614002
 4.47645	0.614151
 4.48045	0.6143
 4.48445	0.614449
 4.48845	0.614598
 4.49245	0.614746
 4.49645	0.614895
 4.50045	0.615043
 4.50445	0.615183
 4.50845	0.615324
 4.51245	0.615464
 4.51645	0.615605
 4.52045	0.615745
 4.52445	0.615885
 4.52845	0.616025
 4.53245	0.616166
 4.53645	0.616306
 4.54045	0.616446
 4.54445	0.616586
 4.54845	0.616726
 4.55246	0.616866
 4.55646	0.617005
 4.56046	0.617145
 4.56446	0.617285
 4.56846	0.617424
 4.57246	0.617564
 4.57646	0.617703
 4.58046	0.617843
 4.58446	0.617982
 4.58846	0.618122
 4.59246	0.618261
 4.59646	0.6184
 4.60046	0.618539
 4.60446	0.618678
 4.60846	0.618817
 4.61246	0.618956
 4.61646	0.619095
 4.62046	0.619234
 4.62446	0.619373
 4.62846	0.619512
 4.63246	0.61965
 4.63646	0.619789
 4.64046	0.619928
 4.64446	0.620066
 4.64846	0.620205
 4.65247	0.620343
 4.65647	0.620481
 4.66047	0.62062
 4.66447	0.620758
 4.66847	0.620896
 4.67247	0.621034
 4.67647	0.621172
 4.68047	0.62131
 4.68447	0.621448
 4.68847	0.621586
 4.69247	0.621724
 4.69647	0.621862
 4.70047	0.621999
 4.70447	0.622137
 4.70847	0.622275
 4.71247	0.622412
 4.71647	0.62255
 4.72047	0.622687
 4.72447	0.622824
 4.72847	0.622962
 4.73247	0.623099
 4.73647	0.623236
 4.74047	0.623373
 4.74447	0.62351
 4.74847	0.623647
 4.75248	0.623784
 4.75648	0.623921
 4.76048	0.624058
 4.76448	0.624195
 4.76848	0.624332
 4.77248	0.624468
 4.77648	0.624605
 4.78048	0.624742
 4.78448	0.624878
 4.78848	0.625015
 4.79248	0.625151
 4.79648	0.625287
 4.80048	0.625424
 4.80448	0.62556
 4.80848	0.625696
 4.81248	0.625832
 4.81648	0.625968
 4.82048	0.626104
 4.82448	0.62624
 4.82848	0.626376
 4.83248	0.626512
 4.83648	0.626648
 4.84048	0.626783
 4.84448	0.626919
 4.84848	0.627055
 4.85249	0.62719
 4.85649	0.627326
 4.86049	0.627461
 4.86449	0.627597
 4.86849	0.627732
 4.87249	0.627867
 4.87649	0.628002
 4.88049	0.628138
 4.88449	0.628273
 4.88849	0.628408
 4.89249	0.628543
 4.89649	0.628678
 4.90049	0.628813
 4.90449	0.628947
 4.90849	0.629082
 4.91249	0.629217
 4.91649	0.629352
 4.92049	0.629486
 4.92449	0.629621
 4.92849	0.629755
 4.93249	0.62989
 4.93649	0.630024
 4.94049	0.630158
 4.94449	0.630293
 4.94849	0.630427
 4.9525	0.630561
 4.9565	0.630695
 4.9605	0.630829
 4.9645	0.630963
 4.9685	0.631097
 4.9725	0.631231
 4.9765	0.631365
 4.9805	0.631499
 4.9845	0.631633
 4.9885	0.631766
 4.9925	0.6319
 4.9965	0.632034
 5.0005	0.632165
 5.0045	0.632286
 5.0085	0.632407
 5.0125	0.632528
 5.0165	0.632649
 5.0205	0.632769
 5.0245	0.63289
 5.0285	0.63301
 5.0325	0.633131
 5.0365	0.633251
 5.0405	0.633372
 5.0445	0.633492
 5.0485	0.633612
 5.05251	0.633732
 5.05651	0.633853
 5.06051	0.633973
 5.06451	0.634093
 5.06851	0.634213
 5.07251	0.634333
 5.07651	0.634452
 5.08051	0.634572
 5.08451	0.634692
 5.08851	0.634812
 5.09251	0.634931
 5.09651	0.635051
 5.10051	0.63517
 5.10451	0.63529
 5.10851	0.635409
 5.11251	0.635528
 5.11651	0.635648
 5.12051	0.635767
 5.12451	0.635886
 5.12851	0.636005
 5.13251	0.636124
 5.13651	0.636243
 5.14051	0.636362
 5.14451	0.636481
 5.14851	0.6366
 5.15252	0.636718
 5.15652	0.636837
 5.16052	0.636956
 5.16452	0.637074
 5.16852	0.637193
 5.17252	0.637311
 5.17652	0.63743
 5.18052	0.637548
 5.18452	0.637666
 5.18852	0.637785
 5.19252	0.637903
 5.19652	0.638021
 5.20052	0.638139
 5.20452	0.638257
 5.20852	0.638375
 5.21252	0.638493
 5.21652	0.638611
 5.22052	0.638729
 5.22452	0.638846
 5.22852	0.638964
 5.23252	0.639082
 5.23652	0.639199
 5.24052	0.639317
 5.24452	0.639434
 5.24852	0.639552
 5.25253	0.639669
 5.25653	0.639786
 5.26053	0.639903
 5.26453	0.640021
 5.26853	0.640138
 5.27253	0.640255
 5.27653	0.640372
 5.28053	0.640489
 5.28453	0.640606
 5.28853	0.640722
 5.29253	0.640839
 5.29653	0.640956
 5.30053	0.641073
 5.30453	0.641189
 5.30853	0.641306
 5.31253	0.641422
 5.31653	0.641539
 5.32053	0.641655
 5.32453	0.641772
 5.32853	0.641888
 5.33253	0.642004
 5.33653	0.64212
 5.34053	0.642236
 5.34453	0.642352
 5.34853	0.642468
 5.35254	0.642584
 5.35654	0.6427
 5.36054	0.642816
 5.36454	0.642932
 5.36854	0.643048
 5.37254	0.643163
 5.37654	0.643279
 5.38054	0.643395
 5.38454	0.64351
 5.38854	0.643626
 5.39254	0.643741
 5.39654	0.643856
 5.40054	0.643972
 5.40454	0.644087
 5.40854	0.644202
 5.41254	0.644317
 5.41654	0.644432
 5.42054	0.644547
 5.42454	0.644662
 5.42854	0.644777
 5.43254	0.644892
 5.43654	0.645007
 5.44054	0.645122
 5.44454	0.645236
 5.44854	0.645351
 5.45255	0.645466
 5.45655	0.64558
 5.46055	0.645695
 5.46455	0.645809
 5.46855	0.645923
 5.47255	0.646038
 5.47655	0.646152
 5.48055	0.646266
 5.48455	0.64638
 5.48855	0.646495
 5.49255	0.646609
 5.49655	0.646723
 5.50055	0.646836
 5.50455	0.646945
 5.50855	0.647053
 5.51255	0.647162
 5.51655	0.647271
 5.52055	0.647379
 5.52455	0.647488
 5.52855	0.647596
 5.53255	0.647704
 5.53655	0.647813
 5.54055	0.647921
 5.54455	0.648029
 5.54855	0.648137
 5.55256	0.648246
 5.55656	0.648354
 5.56056	0.648462
 5.56456	0.64857
 5.56856	0.648677
 5.57256	0.648785
 5.57656	0.648893
 5.58056	0.649001
 5.58456	0.649108
 5.58856	0.649216
 5.59256	0.649324
 5.59656	0.649431
 5.60056	0.649539
 5.60456	0.649646
 5.60856	0.649753
 5.61256	0.649861
 5.61656	0.649968
 5.62056	0.650075
 5.62456	0.650182
 5.62856	0.650289
 5.63256	0.650396
 5.63656	0.650503
 5.64056	0.65061
 5.64456	0.650717
 5.64856	0.650824
 5.65257	0.650931
 5.65657	0.651037
 5.66057	0.651144
 5.66457	0.651251
 5.66857	0.651357
 5.67257	0.651464
 5.67657	0.65157
 5.68057	0.651676
 5.68457	0.651783
 5.68857	0.651889
 5.69257	0.651995
 5.69657	0.652101
 5.70057	0.652208
 5.70457	0.652314
 5.70857	0.65242
 5.71257	0.652526
 5.71657	0.652631
 5.72057	0.652737
 5.72457	0.652843
 5.72857	0.652949
 5.73257	0.653055
 5.73657	0.65316
 5.74057	0.653266
 5.74457	0.653371
 5.74857	0.653477
 5.75258	0.653582
 5.75658	0.653688
 5.76058	0.653793
 5.76458	0.653898
 5.76858	0.654003
 5.77258	0.654109
 5.77658	0.654214
 5.78058	0.654319
 5.78458	0.654424
 5.78858	0.654529
 5.79258	0.654634
 5.79658	0.654738
 5.80058	0.654843
 5.80458	0.654948
 5.80858	0.655053
 5.81258	0.655157
 5.81658	0.655262
 5.82058	0.655366
 5.82458	0.655471
 5.82858	0.655575
 5.83258	0.65568
 5.83658	0.655784
 5.84058	0.655888
 5.84458	0.655993
 5.84858	0.656097
 5.85259	0.656201
 5.85659	0.656305
 5.86059	0.656409
 5.86459	0.656513
 5.86859	0.656617
 5.87259	0.656721
 5.87659	0.656825
 5.88059	0.656928
 5.88459	0.657032
 5.88859	0.657136
 5.89259	0.657239
 5.89659	0.657343
 5.90059	0.657446
 5.90459	0.65755
 5.90859	0.657653
 5.91259	0.657757
 5.91659	0.65786
 5.92059	0.657963
 5.92459	0.658066
 5.92859	0.65817
 5.93259	0.658273
 5.93659	0.658376
 5.94059	0.658479
 5.94459	0.658582
 5.94859	0.658684
 5.9526	0.658787
 5.9566	0.65889
 5.9606	0.658993
 5.9646	0.659096
 5.9686	0.659198
 5.9726	0.659301
 5.9766	0.659403
 5.9806	0.659506
 5.9846	0.659608
 5.9886	0.659711
 5.9926	0.659813
 5.9966	0.659915
 6.0006	0.660017
 6.0046	0.660115
 6.0086	0.660213
 6.0126	0.660311
 6.0166	0.660409
 6.0206	0.660507
 6.0246	0.660605
 6.0286	0.660702
 6.0326	0.6608
 6.0366	0.660898
 6.0406	0.660995
 6.0446	0.661093
 6.0486	0.66119
 6.05261	0.661288
 6.05661	0.661385
 6.06061	0.661483
 6.06461	0.66158
 6.06861	0.661677
 6.07261	0.661774
 6.07661	0.661872
 6.08061	0.661969
 6.08461	0.662066
 6.08861	0.662163
 6.09261	0.66226
 6.09661	0.662357
 6.10061	0.662453
 6.10461	0.66255
 6.10861	0.662647
 6.11261	0.662744
 6.11661	0.66284
 6.12061	0.662937
 6.12461	0.663034
 6.12861	0.66313
 6.13261	0.663226
 6.13661	0.663323
 6.14061	0.663419
 6.14461	0.663516
 6.14861	0.663612
 6.15262	0.663708
 6.15662	0.663804
 6.16062	0.6639
 6.16462	0.663996
 6.16862	0.664092
 6.17262	0.664188
 6.17662	0.664284
 6.18062	0.66438
 6.18462	0.664476
 6.18862	0.664571
 6.19262	0.664667
 6.19662	0.664763
 6.20062	0.664858
 6.20462	0.664954
 6.20862	0.665049
 6.21262	0.665145
 6.21662	0.66524
 6.22062	0.665336
 6.22462	0.665431
 6.22862	0.665526
 6.23262	0.665621
 6.23662	0.665717
 6.24062	0.665812
 6.24462	0.665907
 6.24862	0.666002
 6.25263	0.666097
 6.25663	0.666192
 6.26063	0.666286
 6.26463	0.666381
 6.26863	0.666476
 6.27263	0.666571
 6.27663	0.666665
 6.28063	0.66676
 6.28463	0.666855
 6.28863	0.666949
 6.29263	0.667043
 6.29663	0.667138
 6.30063	0.667232
 6.30463	0.667327
 6.30863	0.667421
 6.31263	0.667515
 6.31663	0.667609
 6.32063	0.667703
 6.32463	0.667797
 6.32863	0.667891
 6.33263	0.667985
 6.33663	0.668079
 6.34063	0.668173
 6.34463	0.668267
 6.34863	0.668361
 6.35264	0.668455
 6.35664	0.668548
 6.36064	0.668642
 6.36464	0.668735
 6.36864	0.668829
 6.37264	0.668922
 6.37664	0.669016
 6.38064	0.669109
 6.38464	0.669203
 6.38864	0.669296
 6.39264	0.669389
 6.39664	0.669482
 6.40064	0.669576
 6.40464	0.669669
 6.40864	0.669762
 6.41264	0.669855
 6.41664	0.669948
 6.42064	0.670041
 6.42464	0.670133
 6.42864	0.670226
 6.43264	0.670319
 6.43664	0.670412
 6.44064	0.670504
 6.44464	0.670597
 6.44864	0.67069
 6.45265	0.670782
 6.45665	0.670875
 6.46065	0.670967
 6.46465	0.67106
 6.46865	0.671152
 6.47265	0.671244
 6.47665	0.671336
 6.48065	0.671429
 6.48465	0.671521
 6.48865	0.671613
 6.49265	0.671705
 6.49665	0.671797
 6.50065	0.671889
 6.50465	0.671981
 6.50865	0.672073
 6.51265	0.672164
 6.51665	0.672256
 6.52065	0.672348
 6.52465	0.67244
 6.52865	0.672531
 6.53265	0.672623
 6.53665	0.672714
 6.54065	0.672806
 6.54465	0.672897
 6.54865	0.672989
 6.55266	0.67308
 6.55666	0.673171
 6.56066	0.673263
 6.56466	0.673354
 6.56866	0.673445
 6.57266	0.673536
 6.57666	0.673627
 6.58066	0.673718
 6.58466	0.673809
 6.58866	0.6739
 6.59266	0.673991
 6.59666	0.674082
 6.60066	0.674173
 6.60466	0.674263
 6.60866	0.674354
 6.61266	0.674445
 6.61666	0.674535
 6.62066	0.674626
 6.62466	0.674716
 6.62866	0.674807
 6.63266	0.674897
 6.63666	0.674988
 6.64066	0.675078
 6.64466	0.675168
 6.64866	0.675259
 6.65267	0.675349
 6.65667	0.675439
 6.66067	0.675529
 6.66467	0.675619
 6.66867	0.675709
 6.67267	0.675799
 6.67667	0.675889
 6.68067	0.675979
 6.68467	0.676069
 6.68867	0.676158
 6.69267	0.676248
 6.69667	0.676338
 6.70067	0.676427
 6.70467	0.676517
 6.70867	0.676607
 6.71267	0.676696
 6.71667	0.676786
 6.72067	0.676875
 6.72467	0.676964
 6.72867	0.677054
 6.73267	0.677143
 6.73667	0.677232
 6.74067	0.677321
 6.74467	0.677411
 6.74867	0.6775
 6.75268	0.677589
 6.75668	0.677678
 6.76068	0.677767
 6.76468	0.677856
 6.76868	0.677944
 6.77268	0.678033
 6.77668	0.678122
 6.78068	0.678211
 6.78468	0.678299
 6.78868	0.678388
 6.79268	0.678477
 6.79668	0.678565
 6.80068	0.678654
 6.80468	0.678742
 6.80868	0.678831
 6.81268	0.678919
 6.81668	0.679007
 6.82068	0.679096
 6.82468	0.679184
 6.82868	0.679272
 6.83268	0.67936
 6.83668	0.679448
 6.84068	0.679536
 6.84468	0.679624
 6.84868	0.679712
 6.85269	0.6798
 6.85669	0.679888
 6.86069	0.679976
 6.86469	0.680064
 6.86869	0.680152
 6.87269	0.680239
 6.87669	0.680327
 6.88069	0.680415
 6.88469	0.680502
 6.88869	0.68059
 6.89269	0.680677
 6.89669	0.680765
 6.90069	0.680852
 6.90469	0.680939
 6.90869	0.681027
 6.91269	0.681114
 6.91669	0.681201
 6.92069	0.681288
 6.92469	0.681375
 6.92869	0.681463
 6.93269	0.68155
 6.93669	0.681637
 6.94069	0.681724
 6.94469	0.68181
 6.94869	0.681897
 6.9527	0.681984
 6.9567	0.682071
 6.9607	0.682158
 6.9647	0.682244
 6.9687	0.682331
 6.9727	0.682418
 6.9767	0.682504
 6.9807	0.682591
 6.9847	0.682677
 6.9887	0.682764
 6.9927	0.68285
 6.9967	0.682936
 7.0007	0.683022
 7.0047	0.683105
 7.0087	0.683188
 7.0127	0.683271
 7.0167	0.683354
 7.0207	0.683437
 7.0247	0.68352
 7.0287	0.683603
 7.0327	0.683685
 7.0367	0.683768
 7.0407	0.683851
 7.0447	0.683933
 7.0487	0.684016
 7.05271	0.684098
 7.05671	0.684181
 7.06071	0.684263
 7.06471	0.684346
 7.06871	0.684428
 7.07271	0.68451
 7.07671	0.684592
 7.08071	0.684675
 7.08471	0.684757
 7.08871	0.684839
 7.09271	0.684921
 7.09671	0.685003
 7.10071	0.685085
 7.10471	0.685167
 7.10871	0.685249
 7.11271	0.685331
 7.11671	0.685413
 7.12071	0.685494
 7.12471	0.685576
 7.12871	0.685658
 7.13271	0.685739
 7.13671	0.685821
 7.14071	0.685903
 7.14471	0.685984
 7.14871	0.686066
 7.15272	0.686147
 7.15672	0.686228
 7.16072	0.68631
 7.16472	0.686391
 7.16872	0.686472
 7.17272	0.686554
 7.17672	0.686635
 7.18072	0.686716
 7.18472	0.686797
 7.18872	0.686878
 7.19272	0.686959
 7.19672	0.68704
 7.20072	0.687121
 7.20472	0.687202
 7.20872	0.687283
 7.21272	0.687363
 7.21672	0.687444
 7.22072	0.687525
 7.22472	0.687605
 7.22872	0.687686
 7.23272	0.687767
 7.23672	0.687847
 7.24072	0.687928
 7.24472	0.688008
 7.24872	0.688089
 7.25273	0.688169
 7.25673	0.688249
 7.26073	0.68833
 7.26473	0.68841
 7.26873	0.68849
 7.27273	0.68857
 7.27673	0.68865
 7.28073	0.68873
 7.28473	0.68881
 7.28873	0.68889
 7.29273	0.68897
 7.29673	0.68905
 7.30073	0.68913
 7.30473	0.68921
 7.30873	0.68929
 7.31273	0.689369
 7.31673	0.689449
 7.32073	0.689529
 7.32473	0.689608
 7.32873	0.689688
 7.33273	0.689767
 7.33673	0.689847
 7.34073	0.689926
 7.34473	0.690006
 7.34873	0.690085
 7.35274	0.690164
 7.35674	0.690244
 7.36074	0.690323
 7.36474	0.690402
 7.36874	0.690481
 7.37274	0.69056
 7.37674	0.690639
 7.38074	0.690718
 7.38474	0.690797
 7.38874	0.690876
 7.39274	0.690955
 7.39674	0.691034
 7.40074	0.691113
 7.40474	0.691192
 7.40874	0.69127
 7.41274	0.691349
 7.41674	0.691428
 7.42074	0.691506
 7.42474	0.691585
 7.42874	0.691663
 7.43274	0.691742
 7.43674	0.69182
 7.44074	0.691899
 7.44474	0.691977
 7.44874	0.692055
 7.45275	0.692134
 7.45675	0.692212
 7.46075	0.69229
 7.46475	0.692368
 7.46875	0.692446
 7.47275	0.692525
 7.47675	0.692603
 7.48075	0.692681
 7.48475	0.692759
 7.48875	0.692836
 7.49275	0.692914
 7.49675	0.692992
 7.50075	0.69307
 7.50475	0.693148
 7.50875	0.693225
 7.51275	0.693303
 7.51675	0.693381
 7.52075	0.693458
 7.52475	0.693536
 7.52875	0.693613
 7.53275	0.693691
 7.53675	0.693768
 7.54075	0.693846
 7.54475	0.693923
 7.54875	0.694
 7.55276	0.694078
 7.55676	0.694155
 7.56076	0.694232
 7.56476	0.694309
 7.56876	0.694386
 7.57276	0.694463
 7.57676	0.69454
 7.58076	0.694617
 7.58476	0.694694
 7.58876	0.694771
 7.59276	0.694848
 7.59676	0.694925
 7.60076	0.695002
 7.60476	0.695078
 7.60876	0.695155
 7.61276	0.695232
 7.61676	0.695308
 7.62076	0.695385
 7.62476	0.695462
 7.62876	0.695538
 7.63276	0.695615
 7.63676	0.695691
 7.64076	0.695767
 7.64476	0.695844
 7.64876	0.69592
 7.65277	0.695996
 7.65677	0.696072
 7.66077	0.696149
 7.66477	0.696225
 7.66877	0.696301
 7.67277	0.696377
 7.67677	0.696453
 7.68077	0.696529
 7.68477	0.696605
 7.68877	0.696681
 7.69277	0.696757
 7.69677	0.696833
 7.70077	0.696908
 7.70477	0.696984
 7.70877	0.69706
 7.71277	0.697136
 7.71677	0.697211
 7.72077	0.697287
 7.72477	0.697362
 7.72877	0.697438
 7.73277	0.697513
 7.73677	0.697589
 7.74077	0.697664
 7.74477	0.69774
 7.74877	0.697815
 7.75278	0.69789
 7.75678	0.697965
 7.76078	0.698041
 7.76478	0.698116
 7.76878	0.698191
 7.77278	0.698266
 7.77678	0.698341
 7.78078	0.698416
 7.78478	0.698491
 7.78878	0.698566
 7.79278	0.698641
 7.79678	0.698716
 7.80078	0.698791
 7.80478	0.698865
 7.80878	0.69894
 7.81278	0.699015
 7.81678	0.699089
 7.82078	0.699164
 7.82478	0.699239
 7.82878	0.699313
 7.83278	0.699388
 7.83678	0.699462
 7.84078	0.699537
 7.84478	0.699611
 7.84878	0.699685
 7.85279	0.69976
 7.85679	0.699834
 7.86079	0.699908
 7.86479	0.699982
 7.86879	0.700057
 7.87279	0.700131
 7.87679	0.700205
 7.88079	0.700279
 7.88479	0.700353
 7.88879	0.700427
 7.89279	0.700501
 7.89679	0.700575
 7.90079	0.700649
 7.90479	0.700722
 7.90879	0.700796
 7.91279	0.70087
 7.91679	0.700944
 7.92079	0.701017
 7.92479	0.701091
 7.92879	0.701164
 7.93279	0.701238
 7.93679	0.701312
 7.94079	0.701385
 7.94479	0.701458
 7.94879	0.701532
 7.9528	0.701605
 7.9568	0.701679
 7.9608	0.701752
 7.9648	0.701825
 7.9688	0.701898
 7.9728	0.701972
 7.9768	0.702045
 7.9808	0.702118
 7.9848	0.702191
 7.9888	0.702264
 7.9928	0.702337
 7.9968	0.70241
 8.0008	0.702483
 8.0048	0.702555
 8.0088	0.702627
 8.0128	0.702699
 8.0168	0.702771
 8.0208	0.702843
 8.0248	0.702915
 8.0288	0.702987
 8.0328	0.703059
 8.0368	0.703131
 8.0408	0.703202
 8.0448	0.703274
 8.0488	0.703346
 8.05281	0.703418
 8.05681	0.703489
 8.06081	0.703561
 8.06481	0.703632
 8.06881	0.703704
 8.07281	0.703776
 8.07681	0.703847
 8.08081	0.703918
 8.08481	0.70399
 8.08881	0.704061
 8.09281	0.704133
 8.09681	0.704204
 8.10081	0.704275
 8.10481	0.704346
 8.10881	0.704418
 8.11281	0.704489
 8.11681	0.70456
 8.12081	0.704631
 8.12481	0.704702
 8.12881	0.704773
 8.13281	0.704844
 8.13681	0.704915
 8.14081	0.704986
 8.14481	0.705056
 8.14881	0.705127
 8.15282	0.705198
 8.15682	0.705269
 8.16082	0.705339
 8.16482	0.70541
 8.16882	0.705481
 8.17282	0.705551
 8.17682	0.705622
 8.18082	0.705692
 8.18482	0.705763
 8.18882	0.705833
 8.19282	0.705904
 8.19682	0.705974
 8.20082	0.706045
 8.20482	0.706115
 8.20882	0.706185
 8.21282	0.706255
 8.21682	0.706325
 8.22082	0.706396
 8.22482	0.706466
 8.22882	0.706536
 8.23282	0.706606
 8.23682	0.706676
 8.24082	0.706746
 8.24482	0.706816
 8.24882	0.706886
 8.25283	0.706956
 8.25683	0.707025
 8.26083	0.707095
 8.26483	0.707165
 8.26883	0.707235
 8.27283	0.707304
 8.27683	0.707374
 8.28083	0.707444
 8.28483	0.707513
 8.28883	0.707583
 8.29283	0.707652
 8.29683	0.707722
 8.30083	0.707791
 8.30483	0.707861
 8.30883	0.70793
 8.31283	0.707999
 8.31683	0.708069
 8.32083	0.708138
 8.32483	0.708207
 8.32883	0.708276
 8.33283	0.708345
 8.33683	0.708414
 8.34083	0.708484
 8.34483	0.708553
 8.34883	0.708622
 8.35284	0.708691
 8.35684	0.708759
 8.36084	0.708828
 8.36484	0.708897
 8.36884	0.708966
 8.37284	0.709035
 8.37684	0.709104
 8.38084	0.709172
 8.38484	0.709241
 8.38884	0.70931
 8.39284	0.709378
 8.39684	0.709447
 8.40084	0.709515
 8.40484	0.709584
 8.40884	0.709652
 8.41284	0.709721
 8.41684	0.709789
 8.42084	0.709858
 8.42484	0.709926
 8.42884	0.709994
 8.43284	0.710062
 8.43684	0.710131
 8.44084	0.710199
 8.44484	0.710267
 8.44884	0.710335
 8.45285	0.710403
 8.45685	0.710471
 8.46085	0.710539
 8.46485	0.710607
 8.46885	0.710675
 8.47285	0.710743
 8.47685	0.710811
 8.48085	0.710879
 8.48485	0.710947
 8.48885	0.711014
 8.49285	0.711082
 8.49685	0.71115
 8.50085	0.711218
 8.50485	0.711285
 8.50885	0.711353
 8.51285	0.71142
 8.51685	0.711488
 8.52085	0.711555
 8.52485	0.711623
 8.52885	0.71169
 8.53285	0.711758
 8.53685	0.711825
 8.54085	0.711892
 8.54485	0.71196
 8.54885	0.712027
 8.55286	0.712094
 8.55686	0.712161
 8.56086	0.712228
 8.56486	0.712296
 8.56886	0.712363
 8.57286	0.71243
 8.57686	0.712497
 8.58086	0.712564
 8.58486	0.712631
 8.58886	0.712698
 8.59286	0.712764
 8.59686	0.712831
 8.60086	0.712898
 8.60486	0.712965
 8.60886	0.713032
 8.61286	0.713098
 8.61686	0.713165
 8.62086	0.713232
 8.62486	0.713298
 8.62886	0.713365
 8.63286	0.713431
 8.63686	0.713498
 8.64086	0.713564
 8.64486	0.713631
 8.64886	0.713697
 8.65287	0.713763
 8.65687	0.71383
 8.66087	0.713896
 8.66487	0.713962
 8.66887	0.714029
 8.67287	0.714095
 8.67687	0.714161
 8.68087	0.714227
 8.68487	0.714293
 8.68887	0.714359
 8.69287	0.714425
 8.69687	0.714491
 8.70087	0.714557
 8.70487	0.714623
 8.70887	0.714689
 8.71287	0.714755
 8.71687	0.714821
 8.72087	0.714886
 8.72487	0.714952
 8.72887	0.715018
 8.73287	0.715084
 8.73687	0.715149
 8.74087	0.715215
 8.74487	0.71528
 8.74887	0.715346
 8.75288	0.715412
 8.75688	0.715477
 8.76088	0.715542
 8.76488	0.715608
 8.76888	0.715673
 8.77288	0.715739
 8.77688	0.715804
 8.78088	0.715869
 8.78488	0.715935
 8.78888	0.716
 8.79288	0.716065
 8.79688	0.71613
 8.80088	0.716195
 8.80488	0.71626
 8.80888	0.716325
 8.81288	0.71639
 8.81688	0.716455
 8.82088	0.71652
 8.82488	0.716585
 8.82888	0.71665
 8.83288	0.716715
 8.83688	0.71678
 8.84088	0.716845
 8.84488	0.716909
 8.84888	0.716974
 8.85289	0.717039
 8.85689	0.717103
 8.86089	0.717168
 8.86489	0.717233
 8.86889	0.717297
 8.87289	0.717362
 8.87689	0.717426
 8.88089	0.717491
 8.88489	0.717555
 8.88889	0.71762
 8.89289	0.717684
 8.89689	0.717748
 8.90089	0.717813
 8.90489	0.717877
 8.90889	0.717941
 8.91289	0.718005
 8.91689	0.718069
 8.92089	0.718134
 8.92489	0.718198
 8.92889	0.718262
 8.93289	0.718326
 8.93689	0.71839
 8.94089	0.718454
 8.94489	0.718518
 8.94889	0.718582
 8.9529	0.718645
 8.9569	0.718709
 8.9609	0.718773
 8.9649	0.718837
 8.9689	0.718901
 8.9729	0.718964
 8.9769	0.719028
 8.9809	0.719092
 8.9849	0.719155
 8.9889	0.719219
 8.9929	0.719282
 8.9969	0.719346
 9.0009	0.719409
 9.0049	0.719473
 9.0089	0.719536
 9.0129	0.719599
 9.0169	0.719662
 9.0209	0.719725
 9.0249	0.719788
 9.0289	0.719851
 9.0329	0.719914
 9.0369	0.719977
 9.0409	0.72004
 9.0449	0.720103
 9.0489	0.720166
 9.05291	0.720228
 9.05691	0.720291
 9.06091	0.720354
 9.06491	0.720417
 9.06891	0.720479
 9.07291	0.720542
 9.07691	0.720605
 9.08091	0.720667
 9.08491	0.72073
 9.08891	0.720792
 9.09291	0.720855
 9.09691	0.720917
 9.10091	0.72098
 9.10491	0.721042
 9.10891	0.721104
 9.11291	0.721167
 9.11691	0.721229
 9.12091	0.721291
 9.12491	0.721353
 9.12891	0.721416
 9.13291	0.721478
 9.13691	0.72154
 9.14091	0.721602
 9.14491	0.721664
 9.14891	0.721726
 9.15292	0.721788
 9.15692	0.72185
 9.16092	0.721912
 9.16492	0.721974
 9.16892	0.722036
 9.17292	0.722098
 9.17692	0.72216
 9.18092	0.722221
 9.18492	0.722283
 9.18892	0.722345
 9.19292	0.722406
 9.19692	0.722468
 9.20092	0.72253
 9.20492	0.722591
 9.20892	0.722653
 9.21292	0.722714
 9.21692	0.722776
 9.22092	0.722837
 9.22492	0.722899
 9.22892	0.72296
 9.23292	0.723022
 9.23692	0.723083
 9.24092	0.723144
 9.24492	0.723206
 9.24892	0.723267
 9.25293	0.723328
 9.25693	0.723389
 9.26093	0.723451
 9.26493	0.723512
 9.26893	0.723573
 9.27293	0.723634
 9.27693	0.723695
 9.28093	0.723756
 9.28493	0.723817
 9.28893	0.723878
 9.29293	0.723939
 9.29693	0.724
 9.30093	0.724061
 9.30493	0.724121
 9.30893	0.724182
 9.31293	0.724243
 9.31693	0.724304
 9.32093	0.724364
 9.32493	0.724425
 9.32893	0.724486
 9.33293	0.724546
 9.33693	0.724607
 9.34093	0.724667
 9.34493	0.724728
 9.34893	0.724788
 9.35294	0.724849
 9.35694	0.724909
 9.36094	0.72497
 9.36494	0.72503
 9.36894	0.72509
 9.37294	0.725151
 9.37694	0.725211
 9.38094	0.725271
 9.38494	0.725331
 9.38894	0.725392
 9.39294	0.725452
 9.39694	0.725512
 9.40094	0.725572
 9.40494	0.725632
 9.40894	0.725692
 9.41294	0.725752
 9.41694	0.725812
 9.42094	0.725872
 9.42494	0.725932
 9.42894	0.725992
 9.43294	0.726052
 9.43694	0.726112
 9.44094	0.726171
 9.44494	0.726231
 9.44894	0.726291
 9.45295	0.726351
 9.45695	0.72641
 9.46095	0.72647
 9.46495	0.726529
 9.46895	0.726589
 9.47295	0.726649
 9.47695	0.726708
 9.48095	0.726768
 9.48495	0.726827
 9.48895	0.726887
 9.49295	0.726946
 9.49695	0.727005
 9.50095	0.727065
 9.50495	0.727124
 9.50895	0.727183
 9.51295	0.727243
 9.51695	0.727302
 9.52095	0.727361
 9.52495	0.72742
 9.52895	0.727479
 9.53295	0.727538
 9.53695	0.727597
 9.54095	0.727656
 9.54495	0.727716
 9.54895	0.727774
 9.55296	0.727833
 9.55696	0.727892
 9.56096	0.727951
 9.56496	0.72801
 9.56896	0.728069
 9.57296	0.728128
 9.57696	0.728187
 9.58096	0.728245
 9.58496	0.728304
 9.58896	0.728363
 9.59296	0.728421
 9.59696	0.72848
 9.60096	0.728539
 9.60496	0.728597
 9.60896	0.728656
 9.61296	0.728714
 9.61696	0.728773
 9.62096	0.728831
 9.62496	0.72889
 9.62896	0.728948
 9.63296	0.729006
 9.63696	0.729065
 9.64096	0.729123
 9.64496	0.729181
 9.64896	0.72924
 9.65297	0.729298
 9.65697	0.729356
 9.66097	0.729414
 9.66497	0.729472
 9.66897	0.72953
 9.67297	0.729589
 9.67697	0.729647
 9.68097	0.729705
 9.68497	0.729763
 9.68897	0.729821
 9.69297	0.729878
 9.69697	0.729936
 9.70097	0.729994
 9.70497	0.730052
 9.70897	0.73011
 9.71297	0.730168
 9.71697	0.730225
 9.72097	0.730283
 9.72497	0.730341
 9.72897	0.730399
 9.73297	0.730456
 9.73697	0.730514
 9.74097	0.730571
 9.74497	0.730629
 9.74897	0.730687
 9.75298	0.730744
 9.75698	0.730801
 9.76098	0.730859
 9.76498	0.730916
 9.76898	0.730974
 9.77298	0.731031
 9.77698	0.731088
 9.78098	0.731146
 9.78498	0.731203
 9.78898	0.73126
 9.79298	0.731317
 9.79698	0.731375
 9.80098	0.731432
 9.80498	0.731489
 9.80898	0.731546
 9.81298	0.731603
 9.81698	0.73166
 9.82098	0.731717
 9.82498	0.731774
 9.82898	0.731831
 9.83298	0.731888
 9.83698	0.731945
 9.84098	0.732002
 9.84498	0.732059
 9.84898	0.732115
 9.85299	0.732172
 9.85699	0.732229
 9.86099	0.732286
 9.86499	0.732342
 9.86899	0.732399
 9.87299	0.732456
 9.87699	0.732512
 9.88099	0.732569
 9.88499	0.732626
 9.88899	0.732682
 9.89299	0.732739
 9.89699	0.732795
 9.90099	0.732851
 9.90499	0.732908
 9.90899	0.732964
 9.91299	0.733021
 9.91699	0.733077
 9.92099	0.733133
 9.92499	0.73319
 9.92899	0.733246
 9.93299	0.733302
 9.93699	0.733358
 9.94099	0.733414
 9.94499	0.733471
 9.94899	0.733527
 9.953	0.733583
 9.957	0.733639
 9.961	0.733695
 9.965	0.733751
 9.969	0.733807
 9.973	0.733863
 9.977	0.733919
 9.981	0.733975
 9.985	0.73403
 9.989	0.734086
 9.993	0.734142
 9.997	0.734198
 10.001	0.734254
 10.005	0.734309
 10.009	0.734365
 10.013	0.734421
 10.017	0.734476
 10.021	0.734532
 10.025	0.734588
 10.029	0.734643
 10.033	0.734699
 10.037	0.734754
 10.041	0.73481
 10.045	0.734865
 10.049	0.73492
 10.053	0.734976
 10.057	0.735031
 10.061	0.735087
 10.065	0.735142
 10.069	0.735197
 10.073	0.735252
 10.077	0.735308
 10.081	0.735363
 10.085	0.735418
 10.089	0.735473
 10.093	0.735528
 10.097	0.735583
 10.101	0.735638
 10.105	0.735693
 10.109	0.735748
 10.113	0.735803
 10.117	0.735858
 10.121	0.735913
 10.125	0.735968
 10.129	0.736023
 10.133	0.736078
 10.137	0.736133
 10.141	0.736188
 10.145	0.736242
 10.149	0.736297
 10.153	0.736352
 10.157	0.736406
 10.161	0.736461
 10.165	0.736516
 10.169	0.73657
 10.173	0.736625
 10.177	0.73668
 10.181	0.736734
 10.185	0.736789
 10.189	0.736843
 10.193	0.736897
 10.197	0.736952
 10.201	0.737006
 10.205	0.737061
 10.209	0.737115
 10.213	0.737169
 10.217	0.737224
 10.221	0.737278
 10.225	0.737332
 10.229	0.737386
 10.233	0.73744
 10.237	0.737495
 10.241	0.737549
 10.245	0.737603
 10.249	0.737657
 10.253	0.737711
 10.257	0.737765
 10.261	0.737819
 10.265	0.737873
 10.269	0.737927
 10.273	0.737981
 10.277	0.738035
 10.281	0.738088
 10.285	0.738142
 10.289	0.738196
 10.293	0.73825
 10.297	0.738304
 10.301	0.738357
 10.305	0.738411
 10.309	0.738465
 10.313	0.738518
 10.317	0.738572
 10.321	0.738625
 10.325	0.738679
 10.329	0.738733
 10.333	0.738786
 10.337	0.73884
 10.341	0.738893
 10.345	0.738946
 10.349	0.739
 10.353	0.739053
 10.357	0.739107
 10.361	0.73916
 10.365	0.739213
 10.369	0.739266
 10.373	0.73932
 10.377	0.739373
 10.381	0.739426
 10.385	0.739479
 10.389	0.739532
 10.393	0.739586
 10.397	0.739639
 10.401	0.739692
 10.405	0.739745
 10.409	0.739798
 10.413	0.739851
 10.417	0.739904
 10.421	0.739957
 10.425	0.74001
 10.429	0.740062
 10.433	0.740115
 10.437	0.740168
 10.441	0.740221
 10.445	0.740274
 10.449	0.740326
 10.453	0.740379
 10.457	0.740432
 10.461	0.740485
 10.465	0.740537
 10.469	0.74059
 10.473	0.740642
 10.477	0.740695
 10.481	0.740747
 10.485	0.7408
 10.489	0.740852
 10.493	0.740905
 10.497	0.740957
 10.5011	0.74101
 10.5051	0.741062
 10.5091	0.741115
 10.5131	0.741167
 10.5171	0.741219
 10.5211	0.741272
 10.5251	0.741324
 10.5291	0.741376
 10.5331	0.741428
 10.5371	0.74148
 10.5411	0.741533
 10.5451	0.741585
 10.5491	0.741637
 10.5531	0.741689
 10.5571	0.741741
 10.5611	0.741793
 10.5651	0.741845
 10.5691	0.741897
 10.5731	0.741949
 10.5771	0.742001
 10.5811	0.742053
 10.5851	0.742105
 10.5891	0.742156
 10.5931	0.742208
 10.5971	0.74226
 10.6011	0.742312
 10.6051	0.742364
 10.6091	0.742415
 10.6131	0.742467
 10.6171	0.742519
 10.6211	0.74257
 10.6251	0.742622
 10.6291	0.742674
 10.6331	0.742725
 10.6371	0.742777
 10.6411	0.742828
 10.6451	0.74288
 10.6491	0.742931
 10.6531	0.742983
 10.6571	0.743034
 10.6611	0.743086
 10.6651	0.743137
 10.6691	0.743188
 10.6731	0.74324
 10.6771	0.743291
 10.6811	0.743342
 10.6851	0.743393
 10.6891	0.743445
 10.6931	0.743496
 10.6971	0.743547
 10.7011	0.743598
 10.7051	0.743649
 10.7091	0.7437
 10.7131	0.743751
 10.7171	0.743802
 10.7211	0.743853
 10.7251	0.743904
 10.7291	0.743955
 10.7331	0.744006
 10.7371	0.744057
 10.7411	0.744108
 10.7451	0.744159
 10.7491	0.74421
 10.7531	0.744261
 10.7571	0.744312
 10.7611	0.744362
 10.7651	0.744413
 10.7691	0.744464
 10.7731	0.744515
 10.7771	0.744565
 10.7811	0.744616
 10.7851	0.744666
 10.7891	0.744717
 10.7931	0.744768
 10.7971	0.744818
 10.8011	0.744869
 10.8051	0.744919
 10.8091	0.74497
 10.8131	0.74502
 10.8171	0.745071
 10.8211	0.745121
 10.8251	0.745171
 10.8291	0.745222
 10.8331	0.745272
 10.8371	0.745322
 10.8411	0.745373
 10.8451	0.745423
 10.8491	0.745473
 10.8531	0.745523
 10.8571	0.745574
 10.8611	0.745624
 10.8651	0.745674
 10.8691	0.745724
 10.8731	0.745774
 10.8771	0.745824
 10.8811	0.745874
 10.8851	0.745924
 10.8891	0.745974
 10.8931	0.746024
 10.8971	0.746074
 10.9011	0.746124
 10.9051	0.746174
 10.9091	0.746224
 10.9131	0.746274
 10.9171	0.746323
 10.9211	0.746373
 10.9251	0.746423
 10.9291	0.746473
 10.9331	0.746522
 10.9371	0.746572
 10.9411	0.746622
 10.9451	0.746671
 10.9491	0.746721
 10.9531	0.746771
 10.9571	0.74682
 10.9611	0.74687
 10.9651	0.746919
 10.9691	0.746969
 10.9731	0.747018
 10.9771	0.747068
 10.9811	0.747117
 10.9851	0.747167
 10.9891	0.747216
 10.9931	0.747265
 10.9971	0.747315
 11.0011	0.747364
 11.0051	0.747413
 11.0091	0.747463
 11.0131	0.747512
 11.0171	0.747561
 11.0211	0.747611
 11.0251	0.74766
 11.0291	0.747709
 11.0331	0.747758
 11.0371	0.747807
 11.0411	0.747857
 11.0451	0.747906
 11.0491	0.747955
 11.0531	0.748004
 11.0571	0.748053
 11.0611	0.748102
 11.0651	0.748151
 11.0691	0.7482
 11.0731	0.748249
 11.0771	0.748298
 11.0811	0.748347
 11.0851	0.748396
 11.0891	0.748444
 11.0931	0.748493
 11.0971	0.748542
 11.1011	0.748591
 11.1051	0.74864
 11.1091	0.748688
 11.1131	0.748737
 11.1171	0.748786
 11.1211	0.748834
 11.1251	0.748883
 11.1291	0.748932
 11.1331	0.74898
 11.1371	0.749029
 11.1411	0.749077
 11.1451	0.749126
 11.1491	0.749174
 11.1531	0.749223
 11.1571	0.749271
 11.1611	0.74932
 11.1651	0.749368
 11.1691	0.749417
 11.1731	0.749465
 11.1771	0.749513
 11.1811	0.749562
 11.1851	0.74961
 11.1891	0.749658
 11.1931	0.749707
 11.1971	0.749755
 11.2011	0.749803
 11.2051	0.749851
 11.2091	0.749899
 11.2131	0.749947
 11.2171	0.749996
 11.2211	0.750044
 11.2251	0.750092
 11.2291	0.75014
 11.2331	0.750188
 11.2371	0.750236
 11.2411	0.750284
 11.2451	0.750332
 11.2491	0.75038
 11.2531	0.750427
 11.2571	0.750475
 11.2611	0.750523
 11.2651	0.750571
 11.2691	0.750619
 11.2731	0.750667
 11.2771	0.750714
 11.2811	0.750762
 11.2851	0.75081
 11.2891	0.750858
 11.2931	0.750905
 11.2971	0.750953
 11.3011	0.751001
 11.3051	0.751048
 11.3091	0.751096
 11.3131	0.751143
 11.3171	0.751191
 11.3211	0.751238
 11.3251	0.751286
 11.3291	0.751333
 11.3331	0.751381
 11.3371	0.751428
 11.3411	0.751476
 11.3451	0.751523
 11.3491	0.75157
 11.3531	0.751618
 11.3571	0.751665
 11.3611	0.751712
 11.3651	0.751759
 11.3691	0.751807
 11.3731	0.751854
 11.3771	0.751901
 11.3811	0.751948
 11.3851	0.751995
 11.3891	0.752043
 11.3931	0.75209
 11.3971	0.752137
 11.4011	0.752184
 11.4051	0.752231
 11.4091	0.752278
 11.4131	0.752325
 11.4171	0.752372
 11.4211	0.752419
 11.4251	0.752466
 11.4291	0.752513
 11.4331	0.752559
 11.4371	0.752606
 11.4411	0.752653
 11.4451	0.7527
 11.4491	0.752747
 11.4531	0.752793
 11.4571	0.75284
 11.4611	0.752887
 11.4651	0.752934
 11.4691	0.75298
 11.4731	0.753027
 11.4771	0.753074
 11.4811	0.75312
 11.4851	0.753167
 11.4891	0.753213
 11.4931	0.75326
 11.4971	0.753306
 11.5012	0.753353
 11.5052	0.753399
 11.5092	0.753446
 11.5132	0.753492
 11.5172	0.753539
 11.5212	0.753585
 11.5252	0.753631
 11.5292	0.753678
 11.5332	0.753724
 11.5372	0.75377
 11.5412	0.753817
 11.5452	0.753863
 11.5492	0.753909
 11.5532	0.753955
 11.5572	0.754002
 11.5612	0.754048
 11.5652	0.754094
 11.5692	0.75414
 11.5732	0.754186
 11.5772	0.754232
 11.5812	0.754278
 11.5852	0.754324
 11.5892	0.75437
 11.5932	0.754416
 11.5972	0.754462
 11.6012	0.754508
 11.6052	0.754554
 11.6092	0.7546
 11.6132	0.754646
 11.6172	0.754692
 11.6212	0.754738
 11.6252	0.754783
 11.6292	0.754829
 11.6332	0.754875
 11.6372	0.754921
 11.6412	0.754966
 11.6452	0.755012
 11.6492	0.755058
 11.6532	0.755103
 11.6572	0.755149
 11.6612	0.755195
 11.6652	0.75524
 11.6692	0.755286
 11.6732	0.755331
 11.6772	0.755377
 11.6812	0.755422
 11.6852	0.755468
 11.6892	0.755513
 11.6932	0.755559
 11.6972	0.755604
 11.7012	0.75565
 11.7052	0.755695
 11.7092	0.75574
 11.7132	0.755786
 11.7172	0.755831
 11.7212	0.755876
 11.7252	0.755922
 11.7292	0.755967
 11.7332	0.756012
 11.7372	0.756057
 11.7412	0.756102
 11.7452	0.756148
 11.7492	0.756193
 11.7532	0.756238
 11.7572	0.756283
 11.7612	0.756328
 11.7652	0.756373
 11.7692	0.756418
 11.7732	0.756463
 11.7772	0.756508
 11.7812	0.756553
 11.7852	0.756598
 11.7892	0.756643
 11.7932	0.756688
 11.7972	0.756733
 11.8012	0.756778
 11.8052	0.756822
 11.8092	0.756867
 11.8132	0.756912
 11.8172	0.756957
 11.8212	0.757002
 11.8252	0.757046
 11.8292	0.757091
 11.8332	0.757136
 11.8372	0.75718
 11.8412	0.757225
 11.8452	0.75727
 11.8492	0.757314
 11.8532	0.757359
 11.8572	0.757403
 11.8612	0.757448
 11.8652	0.757492
 11.8692	0.757537
 11.8732	0.757581
 11.8772	0.757626
 11.8812	0.75767
 11.8852	0.757715
 11.8892	0.757759
 11.8932	0.757803
 11.8972	0.757848
 11.9012	0.757892
 11.9052	0.757936
 11.9092	0.757981
 11.9132	0.758025
 11.9172	0.758069
 11.9212	0.758113
 11.9252	0.758158
 11.9292	0.758202
 11.9332	0.758246
 11.9372	0.75829
 11.9412	0.758334
 11.9452	0.758378
 11.9492	0.758422
 11.9532	0.758467
 11.9572	0.758511
 11.9612	0.758555
 11.9652	0.758599
 11.9692	0.758643
 11.9732	0.758687
 11.9772	0.75873
 11.9812	0.758774
 11.9852	0.758818
 11.9892	0.758862
 11.9932	0.758906
 11.9972	0.75895
 12.0012	0.758994
 12.0052	0.759037
 12.0092	0.75908
 12.0132	0.759124
 12.0172	0.759167
 12.0212	0.759211
 12.0252	0.759254
 12.0292	0.759298
 12.0332	0.759341
 12.0372	0.759384
 12.0412	0.759428
 12.0452	0.759471
 12.0492	0.759514
 12.0532	0.759557
 12.0572	0.759601
 12.0612	0.759644
 12.0652	0.759687
 12.0692	0.75973
 12.0732	0.759773
 12.0772	0.759816
 12.0812	0.75986
 12.0852	0.759903
 12.0892	0.759946
 12.0932	0.759989
 12.0972	0.760032
 12.1012	0.760075
 12.1052	0.760118
 12.1092	0.760161
 12.1132	0.760204
 12.1172	0.760247
 12.1212	0.76029
 12.1252	0.760332
 12.1292	0.760375
 12.1332	0.760418
 12.1372	0.760461
 12.1412	0.760504
 12.1452	0.760546
 12.1492	0.760589
 12.1532	0.760632
 12.1572	0.760675
 12.1612	0.760717
 12.1652	0.76076
 12.1692	0.760803
 12.1732	0.760845
 12.1772	0.760888
 12.1812	0.760931
 12.1852	0.760973
 12.1892	0.761016
 12.1932	0.761058
 12.1972	0.761101
 12.2012	0.761143
 12.2052	0.761186
 12.2092	0.761228
 12.2132	0.761271
 12.2172	0.761313
 12.2212	0.761355
 12.2252	0.761398
 12.2292	0.76144
 12.2332	0.761482
 12.2372	0.761525
 12.2412	0.761567
 12.2452	0.761609
 12.2492	0.761652
 12.2532	0.761694
 12.2572	0.761736
 12.2612	0.761778
 12.2652	0.76182
 12.2692	0.761863
 12.2732	0.761905
 12.2772	0.761947
 12.2812	0.761989
 12.2852	0.762031
 12.2892	0.762073
 12.2932	0.762115
 12.2972	0.762157
 12.3012	0.762199
 12.3052	0.762241
 12.3092	0.762283
 12.3132	0.762325
 12.3172	0.762367
 12.3212	0.762409
 12.3252	0.762451
 12.3292	0.762492
 12.3332	0.762534
 12.3372	0.762576
 12.3412	0.762618
 12.3452	0.76266
 12.3492	0.762701
 12.3532	0.762743
 12.3572	0.762785
 12.3612	0.762827
 12.3652	0.762868
 12.3692	0.76291
 12.3732	0.762952
 12.3772	0.762993
 12.3812	0.763035
 12.3852	0.763076
 12.3892	0.763118
 12.3932	0.763159
 12.3972	0.763201
 12.4012	0.763242
 12.4052	0.763284
 12.4092	0.763325
 12.4132	0.763367
 12.4172	0.763408
 12.4212	0.76345
 12.4252	0.763491
 12.4292	0.763532
 12.4332	0.763574
 12.4372	0.763615
 12.4412	0.763656
 12.4452	0.763698
 12.4492	0.763739
 12.4532	0.76378
 12.4572	0.763821
 12.4612	0.763862
 12.4652	0.763904
 12.4692	0.763945
 12.4732	0.763986
 12.4772	0.764027
 12.4812	0.764068
 12.4852	0.764109
 12.4892	0.76415
 12.4932	0.764191
 12.4972	0.764232
 12.5013	0.764273
 12.5053	0.764314
 12.5093	0.764355
 12.5133	0.764396
 12.5173	0.764437
 12.5213	0.764478
 12.5253	0.764519
 12.5293	0.76456
 12.5333	0.764601
 12.5373	0.764642
 12.5413	0.764682
 12.5453	0.764723
 12.5493	0.764764
 12.5533	0.764805
 12.5573	0.764845
 12.5613	0.764886
 12.5653	0.764927
 12.5693	0.764968
 12.5733	0.765008
 12.5773	0.765049
 12.5813	0.76509
 12.5853	0.76513
 12.5893	0.765171
 12.5933	0.765211
 12.5973	0.765252
 12.6013	0.765292
 12.6053	0.765333
 12.6093	0.765373
 12.6133	0.765414
 12.6173	0.765454
 12.6213	0.765495
 12.6253	0.765535
 12.6293	0.765575
 12.6333	0.765616
 12.6373	0.765656
 12.6413	0.765697
 12.6453	0.765737
 12.6493	0.765777
 12.6533	0.765817
 12.6573	0.765858
 12.6613	0.765898
 12.6653	0.765938
 12.6693	0.765978
 12.6733	0.766019
 12.6773	0.766059
 12.6813	0.766099
 12.6853	0.766139
 12.6893	0.766179
 12.6933	0.766219
 12.6973	0.766259
 12.7013	0.766299
 12.7053	0.766339
 12.7093	0.766379
 12.7133	0.766419
 12.7173	0.766459
 12.7213	0.766499
 12.7253	0.766539
 12.7293	0.766579
 12.7333	0.766619
 12.7373	0.766659
 12.7413	0.766699
 12.7453	0.766739
 12.7493	0.766778
 12.7533	0.766818
 12.7573	0.766858
 12.7613	0.766898
 12.7653	0.766937
 12.7693	0.766977
 12.7733	0.767017
 12.7773	0.767057
 12.7813	0.767096
 12.7853	0.767136
 12.7893	0.767176
 12.7933	0.767215
 12.7973	0.767255
 12.8013	0.767294
 12.8053	0.767334
 12.8093	0.767373
 12.8133	0.767413
 12.8173	0.767452
 12.8213	0.767492
 12.8253	0.767531
 12.8293	0.767571
 12.8333	0.76761
 12.8373	0.76765
 12.8413	0.767689
 12.8453	0.767728
 12.8493	0.767768
 12.8533	0.767807
 12.8573	0.767847
 12.8613	0.767886
 12.8653	0.767925
 12.8693	0.767964
 12.8733	0.768004
 12.8773	0.768043
 12.8813	0.768082
 12.8853	0.768121
 12.8893	0.76816
 12.8933	0.7682
 12.8973	0.768239
 12.9013	0.768278
 12.9053	0.768317
 12.9093	0.768356
 12.9133	0.768395
 12.9173	0.768434
 12.9213	0.768473
 12.9253	0.768512
 12.9293	0.768551
 12.9333	0.76859
 12.9373	0.768629
 12.9413	0.768668
 12.9453	0.768707
 12.9493	0.768746
 12.9533	0.768785
 12.9573	0.768823
 12.9613	0.768862
 12.9653	0.768901
 12.9693	0.76894
 12.9733	0.768979
 12.9773	0.769018
 12.9813	0.769056
 12.9853	0.769095
 12.9893	0.769134
 12.9933	0.769172
 12.9973	0.769211
 13.0013	0.76925
 13.0053	0.769289
 13.0093	0.769328
 13.0133	0.769367
 13.0173	0.769406
 13.0213	0.769445
 13.0253	0.769484
 13.0293	0.769523
 13.0333	0.769562
 13.0373	0.769601
 13.0413	0.76964
 13.0453	0.769679
 13.0493	0.769718
 13.0533	0.769756
 13.0573	0.769795
 13.0613	0.769834
 13.0653	0.769873
 13.0693	0.769912
 13.0733	0.76995
 13.0773	0.769989
 13.0813	0.770028
 13.0853	0.770067
 13.0893	0.770105
 13.0933	0.770144
 13.0973	0.770183
 13.1013	0.770221
 13.1053	0.77026
 13.1093	0.770299
 13.1133	0.770337
 13.1173	0.770376
 13.1213	0.770414
 13.1253	0.770453
 13.1293	0.770491
 13.1333	0.77053
 13.1373	0.770568
 13.1413	0.770607
 13.1453	0.770645
 13.1493	0.770684
 13.1533	0.770722
 13.1573	0.770761
 13.1613	0.770799
 13.1653	0.770837
 13.1693	0.770876
 13.1733	0.770914
 13.1773	0.770952
 13.1813	0.770991
 13.1853	0.771029
 13.1893	0.771067
 13.1933	0.771105
 13.1973	0.771143
 13.2013	0.771182
 13.2053	0.77122
 13.2093	0.771258
 13.2133	0.771296
 13.2173	0.771334
 13.2213	0.771372
 13.2253	0.771411
 13.2293	0.771449
 13.2333	0.771487
 13.2373	0.771525
 13.2413	0.771563
 13.2453	0.771601
 13.2493	0.771639
 13.2533	0.771677
 13.2573	0.771715
 13.2613	0.771753
 13.2653	0.771791
 13.2693	0.771828
 13.2733	0.771866
 13.2773	0.771904
 13.2813	0.771942
 13.2853	0.77198
 13.2893	0.772018
 13.2933	0.772055
 13.2973	0.772093
 13.3013	0.772131
 13.3053	0.772169
 13.3093	0.772206
 13.3133	0.772244
 13.3173	0.772282
 13.3213	0.77232
 13.3253	0.772357
 13.3293	0.772395
 13.3333	0.772432
 13.3373	0.77247
 13.3413	0.772508
 13.3453	0.772545
 13.3493	0.772583
 13.3533	0.77262
 13.3573	0.772658
 13.3613	0.772695
 13.3653	0.772733
 13.3693	0.77277
 13.3733	0.772808
 13.3773	0.772845
 13.3813	0.772883
 13.3853	0.77292
 13.3893	0.772957
 13.3933	0.772995
 13.3973	0.773032
 13.4013	0.773069
 13.4053	0.773107
 13.4093	0.773144
 13.4133	0.773181
 13.4173	0.773219
 13.4213	0.773256
 13.4253	0.773293
 13.4293	0.77333
 13.4333	0.773367
 13.4373	0.773405
 13.4413	0.773442
 13.4453	0.773479
 13.4493	0.773516
 13.4533	0.773553
 13.4573	0.77359
 13.4613	0.773627
 13.4653	0.773664
 13.4693	0.773701
 13.4733	0.773738
 13.4773	0.773775
 13.4813	0.773812
 13.4853	0.773849
 13.4893	0.773886
 13.4933	0.773923
 13.4973	0.77396
 13.5014	0.773997
 13.5054	0.774034
 13.5094	0.774071
 13.5134	0.774108
 13.5174	0.774145
 13.5214	0.774181
 13.5254	0.774218
 13.5294	0.774255
 13.5334	0.774292
 13.5374	0.774329
 13.5414	0.774365
 13.5454	0.774402
 13.5494	0.774439
 13.5534	0.774475
 13.5574	0.774512
 13.5614	0.774549
 13.5654	0.774585
 13.5694	0.774622
 13.5734	0.774659
 13.5774	0.774695
 13.5814	0.774732
 13.5854	0.774768
 13.5894	0.774805
 13.5934	0.774841
 13.5974	0.774878
 13.6014	0.774914
 13.6054	0.774951
 13.6094	0.774987
 13.6134	0.775024
 13.6174	0.77506
 13.6214	0.775096
 13.6254	0.775133
 13.6294	0.775169
 13.6334	0.775206
 13.6374	0.775242
 13.6414	0.775278
 13.6454	0.775315
 13.6494	0.775351
 13.6534	0.775387
 13.6574	0.775423
 13.6614	0.77546
 13.6654	0.775496
 13.6694	0.775532
 13.6734	0.775568
 13.6774	0.775604
 13.6814	0.77564
 13.6854	0.775677
 13.6894	0.775713
 13.6934	0.775749
 13.6974	0.775785
 13.7014	0.775821
 13.7054	0.775857
 13.7094	0.775893
 13.7134	0.775929
 13.7174	0.775965
 13.7214	0.776001
 13.7254	0.776037
 13.7294	0.776073
 13.7334	0.776109
 13.7374	0.776145
 13.7414	0.776181
 13.7454	0.776217
 13.7494	0.776253
 13.7534	0.776288
 13.7574	0.776324
 13.7614	0.77636
 13.7654	0.776396
 13.7694	0.776432
 13.7734	0.776467
 13.7774	0.776503
 13.7814	0.776539
 13.7854	0.776575
 13.7894	0.77661
 13.7934	0.776646
 13.7974	0.776682
 13.8014	0.776717
 13.8054	0.776753
 13.8094	0.776789
 13.8134	0.776824
 13.8174	0.77686
 13.8214	0.776895
 13.8254	0.776931
 13.8294	0.776967
 13.8334	0.777002
 13.8374	0.777038
 13.8414	0.777073
 13.8454	0.777109
 13.8494	0.777144
 13.8534	0.777179
 13.8574	0.777215
 13.8614	0.77725
 13.8654	0.777286
 13.8694	0.777321
 13.8734	0.777356
 13.8774	0.777392
 13.8814	0.777427
 13.8854	0.777462
 13.8894	0.777498
 13.8934	0.777533
 13.8974	0.777568
 13.9014	0.777604
 13.9054	0.777639
 13.9094	0.777674
 13.9134	0.777709
 13.9174	0.777744
 13.9214	0.77778
 13.9254	0.777815
 13.9294	0.77785
 13.9334	0.777885
 13.9374	0.77792
 13.9414	0.777955
 13.9454	0.77799
 13.9494	0.778025
 13.9534	0.77806
 13.9574	0.778095
 13.9614	0.77813
 13.9654	0.778165
 13.9694	0.7782
 13.9734	0.778235
 13.9774	0.77827
 13.9814	0.778305
 13.9854	0.77834
 13.9894	0.778375
 13.9934	0.77841
 13.9974	0.778445
 14.0014	0.77848
 14.0054	0.778515
 14.0094	0.778549
 14.0134	0.778584
 14.0174	0.778619
 14.0214	0.778654
 14.0254	0.778689
 14.0294	0.778723
 14.0334	0.778758
 14.0374	0.778793
 14.0414	0.778827
 14.0454	0.778862
 14.0494	0.778897
 14.0534	0.778931
 14.0574	0.778966
 14.0614	0.779001
 14.0654	0.779035
 14.0694	0.77907
 14.0734	0.779104
 14.0774	0.779139
 14.0814	0.779174
 14.0854	0.779208
 14.0894	0.779243
 14.0934	0.779277
 14.0974	0.779312
 14.1014	0.779346
 14.1054	0.779381
 14.1094	0.779415
 14.1134	0.779449
 14.1174	0.779484
 14.1214	0.779518
 14.1254	0.779553
 14.1294	0.779587
 14.1334	0.779621
 14.1374	0.779656
 14.1414	0.77969
 14.1454	0.779724
 14.1494	0.779758
 14.1534	0.779793
 14.1574	0.779827
 14.1614	0.779861
 14.1654	0.779895
 14.1694	0.77993
 14.1734	0.779964
 14.1774	0.779998
 14.1814	0.780032
 14.1854	0.780066
 14.1894	0.7801
 14.1934	0.780134
 14.1974	0.780168
 14.2014	0.780203
 14.2054	0.780237
 14.2094	0.780271
 14.2134	0.780305
 14.2174	0.780339
 14.2214	0.780373
 14.2254	0.780407
 14.2294	0.780441
 14.2334	0.780475
 14.2374	0.780509
 14.2414	0.780542
 14.2454	0.780576
 14.2494	0.78061
 14.2534	0.780644
 14.2574	0.780678
 14.2614	0.780712
 14.2654	0.780746
 14.2694	0.780779
 14.2734	0.780813
 14.2774	0.780847
 14.2814	0.780881
 14.2854	0.780915
 14.2894	0.780948
 14.2934	0.780982
 14.2974	0.781016
 14.3014	0.781049
 14.3054	0.781083
 14.3094	0.781117
 14.3134	0.78115
 14.3174	0.781184
 14.3214	0.781218
 14.3254	0.781251
 14.3294	0.781285
 14.3334	0.781318
 14.3374	0.781352
 14.3414	0.781386
 14.3454	0.781419
 14.3494	0.781453
 14.3534	0.781486
 14.3574	0.78152
 14.3614	0.781553
 14.3654	0.781586
 14.3694	0.78162
 14.3734	0.781653
 14.3774	0.781687
 14.3814	0.78172
 14.3854	0.781753
 14.3894	0.781787
 14.3934	0.78182
 14.3974	0.781853
 14.4014	0.781887
 14.4054	0.78192
 14.4094	0.781953
 14.4134	0.781987
 14.4174	0.78202
 14.4214	0.782053
 14.4254	0.782086
 14.4294	0.78212
 14.4334	0.782153
 14.4374	0.782186
 14.4414	0.782219
 14.4454	0.782252
 14.4494	0.782285
 14.4534	0.782318
 14.4574	0.782352
 14.4614	0.782385
 14.4654	0.782418
 14.4694	0.782451
 14.4734	0.782484
 14.4774	0.782517
 14.4814	0.78255
 14.4854	0.782583
 14.4894	0.782616
 14.4934	0.782649
 14.4974	0.782682
 14.5015	0.782715
 14.5055	0.782748
 14.5095	0.782781
 14.5135	0.782813
 14.5175	0.782846
 14.5215	0.782879
 14.5255	0.782912
 14.5295	0.782945
 14.5335	0.782978
 14.5375	0.783011
 14.5415	0.783043
 14.5455	0.783076
 14.5495	0.783109
 14.5535	0.783142
 14.5575	0.783174
 14.5615	0.783207
 14.5655	0.78324
 14.5695	0.783272
 14.5735	0.783305
 14.5775	0.783338
 14.5815	0.78337
 14.5855	0.783403
 14.5895	0.783436
 14.5935	0.783468
 14.5975	0.783501
 14.6015	0.783533
 14.6055	0.783566
 14.6095	0.783598
 14.6135	0.783631
 14.6175	0.783664
 14.6215	0.783696
 14.6255	0.783729
 14.6295	0.783761
 14.6335	0.783793
 14.6375	0.783826
 14.6415	0.783858
 14.6455	0.783891
 14.6495	0.783923
 14.6535	0.783955
 14.6575	0.783988
 14.6615	0.78402
 14.6655	0.784053
 14.6695	0.784085
 14.6735	0.784117
 14.6775	0.784149
 14.6815	0.784182
 14.6855	0.784214
 14.6895	0.784246
 14.6935	0.784278
 14.6975	0.784311
 14.7015	0.784343
 14.7055	0.784375
 14.7095	0.784407
 14.7135	0.784439
 14.7175	0.784472
 14.7215	0.784504
 14.7255	0.784536
 14.7295	0.784568
 14.7335	0.7846
 14.7375	0.784632
 14.7415	0.784664
 14.7455	0.784696
 14.7495	0.784728
 14.7535	0.78476
 14.7575	0.784792
 14.7615	0.784824
 14.7655	0.784856
 14.7695	0.784888
 14.7735	0.78492
 14.7775	0.784952
 14.7815	0.784984
 14.7855	0.785016
 14.7895	0.785048
 14.7935	0.78508
 14.7975	0.785112
 14.8015	0.785143
 14.8055	0.785175
 14.8095	0.785207
 14.8135	0.785239
 14.8175	0.785271
 14.8215	0.785302
 14.8255	0.785334
 14.8295	0.785366
 14.8335	0.785398
 14.8375	0.785429
 14.8415	0.785461
 14.8455	0.785493
 14.8495	0.785524
 14.8535	0.785556
 14.8575	0.785588
 14.8615	0.785619
 14.8655	0.785651
 14.8695	0.785683
 14.8735	0.785714
 14.8775	0.785746
 14.8815	0.785777
 14.8855	0.785809
 14.8895	0.78584
 14.8935	0.785872
 14.8975	0.785903
 14.9015	0.785935
 14.9055	0.785966
 14.9095	0.785998
 14.9135	0.786029
 14.9175	0.786061
 14.9215	0.786092
 14.9255	0.786124
 14.9295	0.786155
 14.9335	0.786186
 14.9375	0.786218
 14.9415	0.786249
 14.9455	0.78628
 14.9495	0.786312
 14.9535	0.786343
 14.9575	0.786374
 14.9615	0.786406
 14.9655	0.786437
 14.9695	0.786468
 14.9735	0.786499
 14.9775	0.786531
 14.9815	0.786562
 14.9855	0.786593
 14.9895	0.786624
 14.9935	0.786655
 14.9975	0.786687
 15.0015	0.786717
 15.0055	0.786748
 15.0095	0.786779
 15.0135	0.786809
 15.0175	0.78684
 15.0215	0.78687
 15.0255	0.786901
 15.0295	0.786931
 15.0335	0.786962
 15.0375	0.786992
 15.0415	0.787023
 15.0455	0.787053
 15.0495	0.787084
 15.0535	0.787114
 15.0575	0.787145
 15.0615	0.787175
 15.0655	0.787206
 15.0695	0.787236
 15.0735	0.787266
 15.0775	0.787297
 15.0815	0.787327
 15.0855	0.787357
 15.0895	0.787388
 15.0935	0.787418
 15.0975	0.787448
 15.1015	0.787479
 15.1055	0.787509
 15.1095	0.787539
 15.1135	0.787569
 15.1175	0.7876
 15.1215	0.78763
 15.1255	0.78766
 15.1295	0.78769
 15.1335	0.78772
 15.1375	0.78775
 15.1415	0.787781
 15.1455	0.787811
 15.1495	0.787841
 15.1535	0.787871
 15.1575	0.787901
 15.1615	0.787931
 15.1655	0.787961
 15.1695	0.787991
 15.1735	0.788021
 15.1775	0.788051
 15.1815	0.788081
 15.1855	0.788111
 15.1895	0.788141
 15.1935	0.788171
 15.1975	0.788201
 15.2015	0.788231
 15.2055	0.788261
 15.2095	0.788291
 15.2135	0.788321
 15.2175	0.788351
 15.2215	0.788381
 15.2255	0.78841
 15.2295	0.78844
 15.2335	0.78847
 15.2375	0.7885
 15.2415	0.78853
 15.2455	0.788559
 15.2495	0.788589
 15.2535	0.788619
 15.2575	0.788649
 15.2615	0.788678
 15.2655	0.788708
 15.2695	0.788738
 15.2735	0.788768
 15.2775	0.788797
 15.2815	0.788827
 15.2855	0.788857
 15.2895	0.788886
 15.2935	0.788916
 15.2975	0.788945
 15.3015	0.788975
 15.3055	0.789005
 15.3095	0.789034
 15.3135	0.789064
 15.3175	0.789093
 15.3215	0.789123
 15.3255	0.789152
 15.3295	0.789182
 15.3335	0.789211
 15.3375	0.789241
 15.3415	0.78927
 15.3455	0.7893
 15.3495	0.789329
 15.3535	0.789359
 15.3575	0.789388
 15.3615	0.789417
 15.3655	0.789447
 15.3695	0.789476
 15.3735	0.789506
 15.3775	0.789535
 15.3815	0.789564
 15.3855	0.789594
 15.3895	0.789623
 15.3935	0.789652
 15.3975	0.789681
 15.4015	0.789711
 15.4055	0.78974
 15.4095	0.789769
 15.4135	0.789798
 15.4175	0.789828
 15.4215	0.789857
 15.4255	0.789886
 15.4295	0.789915
 15.4335	0.789944
 15.4375	0.789973
 15.4415	0.790003
 15.4455	0.790032
 15.4495	0.790061
 15.4535	0.79009
 15.4575	0.790119
 15.4615	0.790148
 15.4655	0.790177
 15.4695	0.790206
 15.4735	0.790235
 15.4775	0.790264
 15.4815	0.790293
 15.4855	0.790322
 15.4895	0.790351
 15.4935	0.79038
 15.4975	0.790409
 15.5016	0.790438
 15.5056	0.790467
 15.5096	0.790496
 15.5136	0.790525
 15.5176	0.790554
 15.5216	0.790582
 15.5256	0.790611
 15.5296	0.79064
 15.5336	0.790669
 15.5376	0.790698
 15.5416	0.790727
 15.5456	0.790755
 15.5496	0.790784
 15.5536	0.790813
 15.5576	0.790842
 15.5616	0.79087
 15.5656	0.790899
 15.5696	0.790928
 15.5736	0.790957
 15.5776	0.790985
 15.5816	0.791014
 15.5856	0.791043
 15.5896	0.791071
 15.5936	0.7911
 15.5976	0.791128
 15.6016	0.791157
 15.6056	0.791186
 15.6096	0.791214
 15.6136	0.791243
 15.6176	0.791271
 15.6216	0.7913
 15.6256	0.791328
 15.6296	0.791357
 15.6336	0.791385
 15.6376	0.791414
 15.6416	0.791442
 15.6456	0.791471
 15.6496	0.791499
 15.6536	0.791528
 15.6576	0.791556
 15.6616	0.791585
 15.6656	0.791613
 15.6696	0.791641
 15.6736	0.79167
 15.6776	0.791698
 15.6816	0.791727
 15.6856	0.791755
 15.6896	0.791783
 15.6936	0.791812
 15.6976	0.79184
 15.7016	0.791868
 15.7056	0.791896
 15.7096	0.791925
 15.7136	0.791953
 15.7176	0.791981
 15.7216	0.792009
 15.7256	0.792038
 15.7296	0.792066
 15.7336	0.792094
 15.7376	0.792122
 15.7416	0.79215
 15.7456	0.792178
 15.7496	0.792207
 15.7536	0.792235
 15.7576	0.792263
 15.7616	0.792291
 15.7656	0.792319
 15.7696	0.792347
 15.7736	0.792375
 15.7776	0.792403
 15.7816	0.792431
 15.7856	0.792459
 15.7896	0.792487
 15.7936	0.792515
 15.7976	0.792543
 15.8016	0.792571
 15.8056	0.792599
 15.8096	0.792627
 15.8136	0.792655
 15.8176	0.792683
 15.8216	0.792711
 15.8256	0.792739
 15.8296	0.792767
 15.8336	0.792795
 15.8376	0.792822
 15.8416	0.79285
 15.8456	0.792878
 15.8496	0.792906
 15.8536	0.792934
 15.8576	0.792961
 15.8616	0.792989
 15.8656	0.793017
 15.8696	0.793045
 15.8736	0.793073
 15.8776	0.7931
 15.8816	0.793128
 15.8856	0.793156
 15.8896	0.793183
 15.8936	0.793211
 15.8976	0.793239
 15.9016	0.793266
 15.9056	0.793294
 15.9096	0.793322
 15.9136	0.793349
 15.9176	0.793377
 15.9216	0.793405
 15.9256	0.793432
 15.9296	0.79346
 15.9336	0.793487
 15.9376	0.793515
 15.9416	0.793542
 15.9456	0.79357
 15.9496	0.793597
 15.9536	0.793625
 15.9576	0.793652
 15.9616	0.79368
 15.9656	0.793707
 15.9696	0.793735
 15.9736	0.793762
 15.9776	0.79379
 15.9816	0.793817
 15.9856	0.793844
 15.9896	0.793872
 15.9936	0.793899
 15.9976	0.793926
 16.0016	0.793954
 16.0056	0.793981
 16.0096	0.794009
 16.0136	0.794037
 16.0176	0.794064
 16.0216	0.794092
 16.0256	0.794119
 16.0296	0.794147
 16.0336	0.794174
 16.0376	0.794202
 16.0416	0.794229
 16.0456	0.794256
 16.0496	0.794284
 16.0536	0.794311
 16.0576	0.794339
 16.0616	0.794366
 16.0656	0.794393
 16.0696	0.794421
 16.0736	0.794448
 16.0776	0.794475
 16.0816	0.794503
 16.0856	0.79453
 16.0896	0.794557
 16.0936	0.794585
 16.0976	0.794612
 16.1016	0.794639
 16.1056	0.794667
 16.1096	0.794694
 16.1136	0.794721
 16.1176	0.794748
 16.1216	0.794775
 16.1256	0.794803
 16.1296	0.79483
 16.1336	0.794857
 16.1376	0.794884
 16.1416	0.794911
 16.1456	0.794938
 16.1496	0.794966
 16.1536	0.794993
 16.1576	0.79502
 16.1616	0.795047
 16.1656	0.795074
 16.1696	0.795101
 16.1736	0.795128
 16.1776	0.795155
 16.1816	0.795182
 16.1856	0.795209
 16.1896	0.795236
 16.1936	0.795263
 16.1976	0.79529
 16.2016	0.795317
 16.2056	0.795344
 16.2096	0.795371
 16.2136	0.795398
 16.2176	0.795425
 16.2216	0.795452
 16.2256	0.795479
 16.2296	0.795505
 16.2336	0.795532
 16.2376	0.795559
 16.2416	0.795586
 16.2456	0.795613
 16.2496	0.79564
 16.2536	0.795667
 16.2576	0.795693
 16.2616	0.79572
 16.2656	0.795747
 16.2696	0.795774
 16.2736	0.7958
 16.2776	0.795827
 16.2816	0.795854
 16.2856	0.795881
 16.2896	0.795907
 16.2936	0.795934
 16.2976	0.795961
 16.3016	0.795987
 16.3056	0.796014
 16.3096	0.796041
 16.3136	0.796067
 16.3176	0.796094
 16.3216	0.796121
 16.3256	0.796147
 16.3296	0.796174
 16.3336	0.7962
 16.3376	0.796227
 16.3416	0.796253
 16.3456	0.79628
 16.3496	0.796306
 16.3536	0.796333
 16.3576	0.796359
 16.3616	0.796386
 16.3656	0.796412
 16.3696	0.796439
 16.3736	0.796465
 16.3776	0.796492
 16.3816	0.796518
 16.3856	0.796545
 16.3896	0.796571
 16.3936	0.796597
 16.3976	0.796624
 16.4016	0.79665
 16.4056	0.796677
 16.4096	0.796703
 16.4136	0.796729
 16.4176	0.796756
 16.4216	0.796782
 16.4256	0.796808
 16.4296	0.796835
 16.4336	0.796861
 16.4376	0.796887
 16.4416	0.796913
 16.4456	0.79694
 16.4496	0.796966
 16.4536	0.796992
 16.4576	0.797018
 16.4616	0.797045
 16.4656	0.797071
 16.4696	0.797097
 16.4736	0.797123
 16.4776	0.797149
 16.4816	0.797175
 16.4856	0.797201
 16.4896	0.797228
 16.4936	0.797254
 16.4976	0.79728
 16.5017	0.797306
 16.5057	0.797332
 16.5097	0.797358
 16.5137	0.797384
 16.5177	0.79741
 16.5217	0.797436
 16.5257	0.797462
 16.5297	0.797488
 16.5337	0.797514
 16.5377	0.79754
 16.5417	0.797566
 16.5457	0.797592
 16.5497	0.797618
 16.5537	0.797644
 16.5577	0.79767
 16.5617	0.797696
 16.5657	0.797722
 16.5697	0.797748
 16.5737	0.797773
 16.5777	0.797799
 16.5817	0.797825
 16.5857	0.797851
 16.5897	0.797877
 16.5937	0.797903
 16.5977	0.797928
 16.6017	0.797954
 16.6057	0.79798
 16.6097	0.798006
 16.6137	0.798032
 16.6177	0.798057
 16.6217	0.798083
 16.6257	0.798109
 16.6297	0.798135
 16.6337	0.79816
 16.6377	0.798186
 16.6417	0.798212
 16.6457	0.798237
 16.6497	0.798263
 16.6537	0.798289
 16.6577	0.798314
 16.6617	0.79834
 16.6657	0.798366
 16.6697	0.798391
 16.6737	0.798417
 16.6777	0.798442
 16.6817	0.798468
 16.6857	0.798493
 16.6897	0.798519
 16.6937	0.798545
 16.6977	0.79857
 16.7017	0.798596
 16.7057	0.798621
 16.7097	0.798647
 16.7137	0.798672
 16.7177	0.798698
 16.7217	0.798723
 16.7257	0.798748
 16.7297	0.798774
 16.7337	0.798799
 16.7377	0.798825
 16.7417	0.79885
 16.7457	0.798876
 16.7497	0.798901
 16.7537	0.798926
 16.7577	0.798952
 16.7617	0.798977
 16.7657	0.799002
 16.7697	0.799028
 16.7737	0.799053
 16.7777	0.799078
 16.7817	0.799104
 16.7857	0.799129
 16.7897	0.799154
 16.7937	0.799179
 16.7977	0.799205
 16.8017	0.79923
 16.8057	0.799255
 16.8097	0.79928
 16.8137	0.799306
 16.8177	0.799331
 16.8217	0.799356
 16.8257	0.799381
 16.8297	0.799406
 16.8337	0.799431
 16.8377	0.799457
 16.8417	0.799482
 16.8457	0.799507
 16.8497	0.799532
 16.8537	0.799557
 16.8577	0.799582
 16.8617	0.799607
 16.8657	0.799632
 16.8697	0.799657
 16.8737	0.799682
 16.8777	0.799707
 16.8817	0.799732
 16.8857	0.799757
 16.8897	0.799782
 16.8937	0.799807
 16.8977	0.799832
 16.9017	0.799857
 16.9057	0.799882
 16.9097	0.799907
 16.9137	0.799932
 16.9177	0.799957
 16.9217	0.799982
 16.9257	0.800007
 16.9297	0.800032
 16.9337	0.800057
 16.9377	0.800081
 16.9417	0.800106
 16.9457	0.800131
 16.9497	0.800156
 16.9537	0.800181
 16.9577	0.800206
 16.9617	0.80023
 16.9657	0.800255
 16.9697	0.80028
 16.9737	0.800305
 16.9777	0.800329
 16.9817	0.800354
 16.9857	0.800379
 16.9897	0.800404
 16.9937	0.800428
 16.9977	0.800453
 17.0017	0.800478
 17.0057	0.800502
 17.0097	0.800527
 17.0137	0.800551
 17.0177	0.800576
 17.0217	0.800601
 17.0257	0.800625
 17.0297	0.80065
 17.0337	0.800674
 17.0377	0.800699
 17.0417	0.800723
 17.0457	0.800748
 17.0497	0.800772
 17.0537	0.800797
 17.0577	0.800821
 17.0617	0.800846
 17.0657	0.80087
 17.0697	0.800894
 17.0737	0.800919
 17.0777	0.800943
 17.0817	0.800968
 17.0857	0.800992
 17.0897	0.801016
 17.0937	0.801041
 17.0977	0.801065
 17.1017	0.80109
 17.1057	0.801114
 17.1097	0.801138
 17.1137	0.801162
 17.1177	0.801187
 17.1217	0.801211
 17.1257	0.801235
 17.1297	0.80126
 17.1337	0.801284
 17.1377	0.801308
 17.1417	0.801332
 17.1457	0.801357
 17.1497	0.801381
 17.1537	0.801405
 17.1577	0.801429
 17.1617	0.801453
 17.1657	0.801478
 17.1697	0.801502
 17.1737	0.801526
 17.1777	0.80155
 17.1817	0.801574
 17.1857	0.801598
 17.1897	0.801622
 17.1937	0.801646
 17.1977	0.801671
 17.2017	0.801695
 17.2057	0.801719
 17.2097	0.801743
 17.2137	0.801767
 17.2177	0.801791
 17.2217	0.801815
 17.2257	0.801839
 17.2297	0.801863
 17.2337	0.801887
 17.2377	0.801911
 17.2417	0.801935
 17.2457	0.801959
 17.2497	0.801983
 17.2537	0.802007
 17.2577	0.802031
 17.2617	0.802055
 17.2657	0.802078
 17.2697	0.802102
 17.2737	0.802126
 17.2777	0.80215
 17.2817	0.802174
 17.2857	0.802198
 17.2897	0.802222
 17.2937	0.802246
 17.2977	0.802269
 17.3017	0.802293
 17.3057	0.802317
 17.3097	0.802341
 17.3137	0.802365
 17.3177	0.802388
 17.3217	0.802412
 17.3257	0.802436
 17.3297	0.80246
 17.3337	0.802483
 17.3377	0.802507
 17.3417	0.802531
 17.3457	0.802554
 17.3497	0.802578
 17.3537	0.802602
 17.3577	0.802626
 17.3617	0.802649
 17.3657	0.802673
 17.3697	0.802696
 17.3737	0.80272
 17.3777	0.802744
 17.3817	0.802767
 17.3857	0.802791
 17.3897	0.802815
 17.3937	0.802838
 17.3977	0.802862
 17.4017	0.802885
 17.4057	0.802909
 17.4097	0.802932
 17.4137	0.802956
 17.4177	0.802979
 17.4217	0.803003
 17.4257	0.803026
 17.4297	0.80305
 17.4337	0.803073
 17.4377	0.803097
 17.4417	0.80312
 17.4457	0.803144
 17.4497	0.803167
 17.4537	0.803191
 17.4577	0.803214
 17.4617	0.803237
 17.4657	0.803261
 17.4697	0.803284
 17.4737	0.803307
 17.4777	0.803331
 17.4817	0.803354
 17.4857	0.803378
 17.4897	0.803401
 17.4937	0.803424
 17.4977	0.803447
 17.5018	0.803471
 17.5058	0.803494
 17.5098	0.803517
 17.5138	0.803541
 17.5178	0.803564
 17.5218	0.803587
 17.5258	0.80361
 17.5298	0.803634
 17.5338	0.803657
 17.5378	0.80368
 17.5418	0.803703
 17.5458	0.803726
 17.5498	0.80375
 17.5538	0.803773
 17.5578	0.803796
 17.5618	0.803819
 17.5658	0.803842
 17.5698	0.803865
 17.5738	0.803888
 17.5778	0.803912
 17.5818	0.803935
 17.5858	0.803958
 17.5898	0.803981
 17.5938	0.804004
 17.5978	0.804027
 17.6018	0.80405
 17.6058	0.804073
 17.6098	0.804096
 17.6138	0.804119
 17.6178	0.804142
 17.6218	0.804165
 17.6258	0.804188
 17.6298	0.804211
 17.6338	0.804234
 17.6378	0.804257
 17.6418	0.80428
 17.6458	0.804303
 17.6498	0.804326
 17.6538	0.804349
 17.6578	0.804372
 17.6618	0.804394
 17.6658	0.804417
 17.6698	0.80444
 17.6738	0.804463
 17.6778	0.804486
 17.6818	0.804509
 17.6858	0.804532
 17.6898	0.804554
 17.6938	0.804577
 17.6978	0.8046
 17.7018	0.804623
 17.7058	0.804646
 17.7098	0.804668
 17.7138	0.804691
 17.7178	0.804714
 17.7218	0.804737
 17.7258	0.804759
 17.7298	0.804782
 17.7338	0.804805
 17.7378	0.804828
 17.7418	0.80485
 17.7458	0.804873
 17.7498	0.804896
 17.7538	0.804918
 17.7578	0.804941
 17.7618	0.804964
 17.7658	0.804986
 17.7698	0.805009
 17.7738	0.805032
 17.7778	0.805054
 17.7818	0.805077
 17.7858	0.805099
 17.7898	0.805122
 17.7938	0.805144
 17.7978	0.805167
 17.8018	0.80519
 17.8058	0.805212
 17.8098	0.805235
 17.8138	0.805257
 17.8178	0.80528
 17.8218	0.805302
 17.8258	0.805325
 17.8298	0.805347
 17.8338	0.80537
 17.8378	0.805392
 17.8418	0.805415
 17.8458	0.805437
 17.8498	0.805459
 17.8538	0.805482
 17.8578	0.805504
 17.8618	0.805527
 17.8658	0.805549
 17.8698	0.805571
 17.8738	0.805594
 17.8778	0.805616
 17.8818	0.805639
 17.8858	0.805661
 17.8898	0.805683
 17.8938	0.805706
 17.8978	0.805728
 17.9018	0.80575
 17.9058	0.805772
 17.9098	0.805795
 17.9138	0.805817
 17.9178	0.805839
 17.9218	0.805862
 17.9258	0.805884
 17.9298	0.805906
 17.9338	0.805928
 17.9378	0.80595
 17.9418	0.805973
 17.9458	0.805995
 17.9498	0.806017
 17.9538	0.806039
 17.9578	0.806061
 17.9618	0.806084
 17.9658	0.806106
 17.9698	0.806128
 17.9738	0.80615
 17.9778	0.806172
 17.9818	0.806194
 17.9858	0.806216
 17.9898	0.806238
 17.9938	0.806261
 17.9978	0.806283
 18.0018	0.806305
 18.0058	0.806327
 18.0098	0.806349
 18.0138	0.806371
 18.0178	0.806393
 18.0218	0.806416
 18.0258	0.806438
 18.0298	0.80646
 18.0338	0.806482
 18.0378	0.806504
 18.0418	0.806526
 18.0458	0.806548
 18.0498	0.806571
 18.0538	0.806593
 18.0578	0.806615
 18.0618	0.806637
 18.0658	0.806659
 18.0698	0.806681
 18.0738	0.806703
 18.0778	0.806725
 18.0818	0.806747
 18.0858	0.806769
 18.0898	0.806791
 18.0938	0.806813
 18.0978	0.806835
 18.1018	0.806857
 18.1058	0.806879
 18.1098	0.806901
 18.1138	0.806923
 18.1178	0.806945
 18.1218	0.806967
 18.1258	0.806989
 18.1298	0.807011
 18.1338	0.807032
 18.1378	0.807054
 18.1418	0.807076
 18.1458	0.807098
 18.1498	0.80712
 18.1538	0.807142
 18.1578	0.807164
 18.1618	0.807186
 18.1658	0.807207
 18.1698	0.807229
 18.1738	0.807251
 18.1778	0.807273
 18.1818	0.807295
 18.1858	0.807316
 18.1898	0.807338
 18.1938	0.80736
 18.1978	0.807382
 18.2018	0.807403
 18.2058	0.807425
 18.2098	0.807447
 18.2138	0.807469
 18.2178	0.80749
 18.2218	0.807512
 18.2258	0.807534
 18.2298	0.807555
 18.2338	0.807577
 18.2378	0.807599
 18.2418	0.80762
 18.2458	0.807642
 18.2498	0.807664
 18.2538	0.807685
 18.2578	0.807707
 18.2618	0.807728
 18.2658	0.80775
 18.2698	0.807772
 18.2738	0.807793
 18.2778	0.807815
 18.2818	0.807836
 18.2858	0.807858
 18.2898	0.807879
 18.2938	0.807901
 18.2978	0.807922
 18.3018	0.807944
 18.3058	0.807965
 18.3098	0.807987
 18.3138	0.808008
 18.3178	0.80803
 18.3218	0.808051
 18.3258	0.808073
 18.3298	0.808094
 18.3338	0.808116
 18.3378	0.808137
 18.3418	0.808159
 18.3458	0.80818
 18.3498	0.808201
 18.3538	0.808223
 18.3578	0.808244
 18.3618	0.808265
 18.3658	0.808287
 18.3698	0.808308
 18.3738	0.80833
 18.3778	0.808351
 18.3818	0.808372
 18.3858	0.808393
 18.3898	0.808415
 18.3938	0.808436
 18.3978	0.808457
 18.4018	0.808479
 18.4058	0.8085
 18.4098	0.808521
 18.4138	0.808542
 18.4178	0.808564
 18.4218	0.808585
 18.4258	0.808606
 18.4298	0.808627
 18.4338	0.808649
 18.4378	0.80867
 18.4418	0.808691
 18.4458	0.808712
 18.4498	0.808733
 18.4538	0.808754
 18.4578	0.808776
 18.4618	0.808797
 18.4658	0.808818
 18.4698	0.808839
 18.4738	0.80886
 18.4778	0.808881
 18.4818	0.808902
 18.4858	0.808923
 18.4898	0.808945
 18.4938	0.808966
 18.4978	0.808987
 18.5019	0.809008
 18.5059	0.809029
 18.5099	0.80905
 18.5139	0.809071
 18.5179	0.809092
 18.5219	0.809113
 18.5259	0.809134
 18.5299	0.809155
 18.5339	0.809176
 18.5379	0.809197
 18.5419	0.809218
 18.5459	0.809239
 18.5499	0.80926
 18.5539	0.809281
 18.5579	0.809302
 18.5619	0.809322
 18.5659	0.809343
 18.5699	0.809364
 18.5739	0.809385
 18.5779	0.809406
 18.5819	0.809427
 18.5859	0.809448
 18.5899	0.809469
 18.5939	0.809489
 18.5979	0.80951
 18.6019	0.809531
 18.6059	0.809552
 18.6099	0.809573
 18.6139	0.809594
 18.6179	0.809614
 18.6219	0.809635
 18.6259	0.809656
 18.6299	0.809677
 18.6339	0.809697
 18.6379	0.809718
 18.6419	0.809739
 18.6459	0.80976
 18.6499	0.80978
 18.6539	0.809801
 18.6579	0.809822
 18.6619	0.809843
 18.6659	0.809863
 18.6699	0.809884
 18.6739	0.809905
 18.6779	0.809925
 18.6819	0.809946
 18.6859	0.809967
 18.6899	0.809987
 18.6939	0.810008
 18.6979	0.810028
 18.7019	0.810049
 18.7059	0.81007
 18.7099	0.81009
 18.7139	0.810111
 18.7179	0.810131
 18.7219	0.810152
 18.7259	0.810172
 18.7299	0.810193
 18.7339	0.810214
 18.7379	0.810234
 18.7419	0.810255
 18.7459	0.810275
 18.7499	0.810296
 18.7539	0.810316
 18.7579	0.810337
 18.7619	0.810357
 18.7659	0.810378
 18.7699	0.810398
 18.7739	0.810418
 18.7779	0.810439
 18.7819	0.810459
 18.7859	0.81048
 18.7899	0.8105
 18.7939	0.810521
 18.7979	0.810541
 18.8019	0.810561
 18.8059	0.810582
 18.8099	0.810602
 18.8139	0.810622
 18.8179	0.810643
 18.8219	0.810663
 18.8259	0.810684
 18.8299	0.810704
 18.8339	0.810724
 18.8379	0.810744
 18.8419	0.810765
 18.8459	0.810785
 18.8499	0.810805
 18.8539	0.810826
 18.8579	0.810846
 18.8619	0.810866
 18.8659	0.810886
 18.8699	0.810907
 18.8739	0.810927
 18.8779	0.810947
 18.8819	0.810967
 18.8859	0.810988
 18.8899	0.811008
 18.8939	0.811028
 18.8979	0.811048
 18.9019	0.811068
 18.9059	0.811088
 18.9099	0.811109
 18.9139	0.811129
 18.9179	0.811149
 18.9219	0.811169
 18.9259	0.811189
 18.9299	0.811209
 18.9339	0.811229
 18.9379	0.811249
 18.9419	0.81127
 18.9459	0.81129
 18.9499	0.81131
 18.9539	0.81133
 18.9579	0.81135
 18.9619	0.81137
 18.9659	0.81139
 18.9699	0.81141
 18.9739	0.81143
 18.9779	0.81145
 18.9819	0.81147
 18.9859	0.81149
 18.9899	0.81151
 18.9939	0.81153
 18.9979	0.81155
 19.0019	0.81157
 19.0059	0.81159
 19.0099	0.811609
 19.0139	0.811629
 19.0179	0.811649
 19.0219	0.811669
 19.0259	0.811688
 19.0299	0.811708
 19.0339	0.811728
 19.0379	0.811748
 19.0419	0.811767
 19.0459	0.811787
 19.0499	0.811807
 19.0539	0.811826
 19.0579	0.811846
 19.0619	0.811866
 19.0659	0.811885
 19.0699	0.811905
 19.0739	0.811925
 19.0779	0.811944
 19.0819	0.811964
 19.0859	0.811984
 19.0899	0.812003
 19.0939	0.812023
 19.0979	0.812043
 19.1019	0.812062
 19.1059	0.812082
 19.1099	0.812101
 19.1139	0.812121
 19.1179	0.81214
 19.1219	0.81216
 19.1259	0.81218
 19.1299	0.812199
 19.1339	0.812219
 19.1379	0.812238
 19.1419	0.812258
 19.1459	0.812277
 19.1499	0.812297
 19.1539	0.812316
 19.1579	0.812336
 19.1619	0.812355
 19.1659	0.812375
 19.1699	0.812394
 19.1739	0.812413
 19.1779	0.812433
 19.1819	0.812452
 19.1859	0.812472
 19.1899	0.812491
 19.1939	0.812511
 19.1979	0.81253
 19.2019	0.812549
 19.2059	0.812569
 19.2099	0.812588
 19.2139	0.812607
 19.2179	0.812627
 19.2219	0.812646
 19.2259	0.812665
 19.2299	0.812685
 19.2339	0.812704
 19.2379	0.812723
 19.2419	0.812743
 19.2459	0.812762
 19.2499	0.812781
 19.2539	0.812801
 19.2579	0.81282
 19.2619	0.812839
 19.2659	0.812858
 19.2699	0.812878
 19.2739	0.812897
 19.2779	0.812916
 19.2819	0.812935
 19.2859	0.812955
 19.2899	0.812974
 19.2939	0.812993
 19.2979	0.813012
 19.3019	0.813031
 19.3059	0.81305
 19.3099	0.81307
 19.3139	0.813089
 19.3179	0.813108
 19.3219	0.813127
 19.3259	0.813146
 19.3299	0.813165
 19.3339	0.813184
 19.3379	0.813204
 19.3419	0.813223
 19.3459	0.813242
 19.3499	0.813261
 19.3539	0.81328
 19.3579	0.813299
 19.3619	0.813318
 19.3659	0.813337
 19.3699	0.813356
 19.3739	0.813375
 19.3779	0.813394
 19.3819	0.813413
 19.3859	0.813432
 19.3899	0.813451
 19.3939	0.81347
 19.3979	0.813489
 19.4019	0.813508
 19.4059	0.813527
 19.4099	0.813546
 19.4139	0.813565
 19.4179	0.813584
 19.4219	0.813603
 19.4259	0.813622
 19.4299	0.813641
 19.4339	0.81366
 19.4379	0.813679
 19.4419	0.813698
 19.4459	0.813716
 19.4499	0.813735
 19.4539	0.813754
 19.4579	0.813773
 19.4619	0.813792
 19.4659	0.813811
 19.4699	0.81383
 19.4739	0.813848
 19.4779	0.813867
 19.4819	0.813886
 19.4859	0.813905
 19.4899	0.813924
 19.4939	0.813942
 19.4979	0.813961
 19.502	0.81398
 19.506	0.813999
 19.51	0.814018
 19.514	0.814036
 19.518	0.814055
 19.522	0.814074
 19.526	0.814092
 19.53	0.814111
 19.534	0.81413
 19.538	0.814149
 19.542	0.814167
 19.546	0.814186
 19.55	0.814205
 19.554	0.814223
 19.558	0.814242
 19.562	0.814261
 19.566	0.814279
 19.57	0.814298
 19.574	0.814317
 19.578	0.814335
 19.582	0.814354
 19.586	0.814372
 19.59	0.814391
 19.594	0.81441
 19.598	0.814428
 19.602	0.814447
 19.606	0.814465
 19.61	0.814484
 19.614	0.814502
 19.618	0.814521
 19.622	0.81454
 19.626	0.814558
 19.63	0.814577
 19.634	0.814595
 19.638	0.814614
 19.642	0.814632
 19.646	0.814651
 19.65	0.814669
 19.654	0.814688
 19.658	0.814706
 19.662	0.814724
 19.666	0.814743
 19.67	0.814761
 19.674	0.81478
 19.678	0.814798
 19.682	0.814817
 19.686	0.814835
 19.69	0.814853
 19.694	0.814872
 19.698	0.81489
 19.702	0.814909
 19.706	0.814927
 19.71	0.814945
 19.714	0.814964
 19.718	0.814982
 19.722	0.815
 19.726	0.815019
 19.73	0.815037
 19.734	0.815055
 19.738	0.815074
 19.742	0.815092
 19.746	0.81511
 19.75	0.815129
 19.754	0.815147
 19.758	0.815165
 19.762	0.815183
 19.766	0.815202
 19.77	0.81522
 19.774	0.815238
 19.778	0.815256
 19.782	0.815275
 19.786	0.815293
 19.79	0.815311
 19.794	0.815329
 19.798	0.815347
 19.802	0.815366
 19.806	0.815384
 19.81	0.815402
 19.814	0.81542
 19.818	0.815438
 19.822	0.815456
 19.826	0.815475
 19.83	0.815493
 19.834	0.815511
 19.838	0.815529
 19.842	0.815547
 19.846	0.815565
 19.85	0.815583
 19.854	0.815601
 19.858	0.815619
 19.862	0.815637
 19.866	0.815656
 19.87	0.815674
 19.874	0.815692
 19.878	0.81571
 19.882	0.815728
 19.886	0.815746
 19.89	0.815764
 19.894	0.815782
 19.898	0.8158
 19.902	0.815818
 19.906	0.815836
 19.91	0.815854
 19.914	0.815872
 19.918	0.81589
 19.922	0.815908
 19.926	0.815926
 19.93	0.815943
 19.934	0.815961
 19.938	0.815979
 19.942	0.815997
 19.946	0.816015
 19.95	0.816033
 19.954	0.816051
 19.958	0.816069
 19.962	0.816087
 19.966	0.816105
 19.97	0.816122
 19.974	0.81614
 19.978	0.816158
 19.982	0.816176
 19.986	0.816194
 19.99	0.816212
 19.994	0.816229
 19.998	0.816247
 20.002	0.816265
 20.006	0.816283
 20.01	0.8163
 20.014	0.816318
 20.018	0.816336
 20.022	0.816353
 20.026	0.816371
 20.03	0.816389
 20.034	0.816406
 20.038	0.816424
 20.042	0.816442
 20.046	0.816459
 20.05	0.816477
 20.054	0.816494
 20.058	0.816512
 20.062	0.81653
 20.066	0.816547
 20.07	0.816565
 20.074	0.816582
 20.078	0.8166
 20.082	0.816617
 20.086	0.816635
 20.09	0.816652
 20.094	0.81667
 20.098	0.816687
 20.102	0.816705
 20.106	0.816722
 20.11	0.81674
 20.114	0.816757
 20.118	0.816775
 20.122	0.816792
 20.126	0.81681
 20.13	0.816827
 20.134	0.816845
 20.138	0.816862
 20.142	0.81688
 20.146	0.816897
 20.15	0.816914
 20.154	0.816932
 20.158	0.816949
 20.162	0.816967
 20.166	0.816984
 20.17	0.817001
 20.174	0.817019
 20.178	0.817036
 20.182	0.817054
 20.186	0.817071
 20.19	0.817088
 20.194	0.817106
 20.198	0.817123
 20.202	0.81714
 20.206	0.817158
 20.21	0.817175
 20.214	0.817192
 20.218	0.817209
 20.222	0.817227
 20.226	0.817244
 20.23	0.817261
 20.234	0.817279
 20.238	0.817296
 20.242	0.817313
 20.246	0.81733
 20.25	0.817348
 20.254	0.817365
 20.258	0.817382
 20.262	0.817399
 20.266	0.817416
 20.27	0.817434
 20.274	0.817451
 20.278	0.817468
 20.282	0.817485
 20.286	0.817502
 20.29	0.817519
 20.294	0.817537
 20.298	0.817554
 20.302	0.817571
 20.306	0.817588
 20.31	0.817605
 20.314	0.817622
 20.318	0.817639
 20.322	0.817657
 20.326	0.817674
 20.33	0.817691
 20.334	0.817708
 20.338	0.817725
 20.342	0.817742
 20.346	0.817759
 20.35	0.817776
 20.354	0.817793
 20.358	0.81781
 20.362	0.817827
 20.366	0.817844
 20.37	0.817861
 20.374	0.817878
 20.378	0.817895
 20.382	0.817912
 20.386	0.817929
 20.39	0.817946
 20.394	0.817963
 20.398	0.81798
 20.402	0.817997
 20.406	0.818014
 20.41	0.818031
 20.414	0.818048
 20.418	0.818065
 20.422	0.818082
 20.426	0.818099
 20.43	0.818116
 20.434	0.818132
 20.438	0.818149
 20.442	0.818166
 20.446	0.818183
 20.45	0.8182
 20.454	0.818217
 20.458	0.818234
 20.462	0.818251
 20.466	0.818267
 20.47	0.818284
 20.474	0.818301
 20.478	0.818318
 20.482	0.818335
 20.486	0.818352
 20.49	0.818368
 20.494	0.818385
 20.498	0.818402
 20.5021	0.818419
 20.5061	0.818435
 20.5101	0.818452
 20.5141	0.818469
 20.5181	0.818486
 20.5221	0.818502
 20.5261	0.818519
 20.5301	0.818536
 20.5341	0.818553
 20.5381	0.818569
 20.5421	0.818586
 20.5461	0.818603
 20.5501	0.818619
 20.5541	0.818636
 20.5581	0.818653
 20.5621	0.818669
 20.5661	0.818686
 20.5701	0.818703
 20.5741	0.818719
 20.5781	0.818736
 20.5821	0.818753
 20.5861	0.818769
 20.5901	0.818786
 20.5941	0.818803
 20.5981	0.818819
 20.6021	0.818836
 20.6061	0.818852
 20.6101	0.818869
 20.6141	0.818886
 20.6181	0.818902
 20.6221	0.818919
 20.6261	0.818935
 20.6301	0.818952
 20.6341	0.818968
 20.6381	0.818985
 20.6421	0.819001
 20.6461	0.819018
 20.6501	0.819034
 20.6541	0.819051
 20.6581	0.819067
 20.6621	0.819084
 20.6661	0.8191
 20.6701	0.819117
 20.6741	0.819133
 20.6781	0.81915
 20.6821	0.819166
 20.6861	0.819183
 20.6901	0.819199
 20.6941	0.819216
 20.6981	0.819232
 20.7021	0.819249
 20.7061	0.819265
 20.7101	0.819281
 20.7141	0.819298
 20.7181	0.819314
 20.7221	0.819331
 20.7261	0.819347
 20.7301	0.819363
 20.7341	0.81938
 20.7381	0.819396
 20.7421	0.819412
 20.7461	0.819429
 20.7501	0.819445
 20.7541	0.819461
 20.7581	0.819478
 20.7621	0.819494
 20.7661	0.81951
 20.7701	0.819527
 20.7741	0.819543
 20.7781	0.819559
 20.7821	0.819576
 20.7861	0.819592
 20.7901	0.819608
 20.7941	0.819624
 20.7981	0.819641
 20.8021	0.819657
 20.8061	0.819673
 20.8101	0.819689
 20.8141	0.819706
 20.8181	0.819722
 20.8221	0.819738
 20.8261	0.819754
 20.8301	0.819771
 20.8341	0.819787
 20.8381	0.819803
 20.8421	0.819819
 20.8461	0.819835
 20.8501	0.819851
 20.8541	0.819868
 20.8581	0.819884
 20.8621	0.8199
 20.8661	0.819916
 20.8701	0.819932
 20.8741	0.819948
 20.8781	0.819964
 20.8821	0.819981
 20.8861	0.819997
 20.8901	0.820013
 20.8941	0.820029
 20.8981	0.820045
 20.9021	0.820061
 20.9061	0.820077
 20.9101	0.820093
 20.9141	0.820109
 20.9181	0.820125
 20.9221	0.820141
 20.9261	0.820157
 20.9301	0.820173
 20.9341	0.82019
 20.9381	0.820206
 20.9421	0.820222
 20.9461	0.820238
 20.9501	0.820254
 20.9541	0.82027
 20.9581	0.820286
 20.9621	0.820302
 20.9661	0.820317
 20.9701	0.820333
 20.9741	0.820349
 20.9781	0.820365
 20.9821	0.820381
 20.9861	0.820397
 20.9901	0.820413
 20.9941	0.820429
 20.9981	0.820445
 21.0021	0.820461
 21.0061	0.820477
 21.0101	0.820493
 21.0141	0.820509
 21.0181	0.820525
 21.0221	0.82054
 21.0261	0.820556
 21.0301	0.820572
 21.0341	0.820588
 21.0381	0.820604
 21.0421	0.82062
 21.0461	0.820636
 21.0501	0.820651
 21.0541	0.820667
 21.0581	0.820683
 21.0621	0.820699
 21.0661	0.820715
 21.0701	0.82073
 21.0741	0.820746
 21.0781	0.820762
 21.0821	0.820778
 21.0861	0.820794
 21.0901	0.820809
 21.0941	0.820825
 21.0981	0.820841
 21.1021	0.820857
 21.1061	0.820872
 21.1101	0.820888
 21.1141	0.820904
 21.1181	0.82092
 21.1221	0.820935
 21.1261	0.820951
 21.1301	0.820967
 21.1341	0.820982
 21.1381	0.820998
 21.1421	0.821014
 21.1461	0.821029
 21.1501	0.821045
 21.1541	0.821061
 21.1581	0.821076
 21.1621	0.821092
 21.1661	0.821108
 21.1701	0.821123
 21.1741	0.821139
 21.1781	0.821155
 21.1821	0.82117
 21.1861	0.821186
 21.1901	0.821201
 21.1941	0.821217
 21.1981	0.821233
 21.2021	0.821248
 21.2061	0.821264
 21.2101	0.821279
 21.2141	0.821295
 21.2181	0.82131
 21.2221	0.821326
 21.2261	0.821341
 21.2301	0.821357
 21.2341	0.821373
 21.2381	0.821388
 21.2421	0.821404
 21.2461	0.821419
 21.2501	0.821435
 21.2541	0.82145
 21.2581	0.821466
 21.2621	0.821481
 21.2661	0.821497
 21.2701	0.821512
 21.2741	0.821527
 21.2781	0.821543
 21.2821	0.821558
 21.2861	0.821574
 21.2901	0.821589
 21.2941	0.821605
 21.2981	0.82162
 21.3021	0.821636
 21.3061	0.821651
 21.3101	0.821666
 21.3141	0.821682
 21.3181	0.821697
 21.3221	0.821713
 21.3261	0.821728
 21.3301	0.821743
 21.3341	0.821759
 21.3381	0.821774
 21.3421	0.821789
 21.3461	0.821805
 21.3501	0.82182
 21.3541	0.821835
 21.3581	0.821851
 21.3621	0.821866
 21.3661	0.821881
 21.3701	0.821897
 21.3741	0.821912
 21.3781	0.821927
 21.3821	0.821943
 21.3861	0.821958
 21.3901	0.821973
 21.3941	0.821988
 21.3981	0.822004
 21.4021	0.822019
 21.4061	0.822034
 21.4101	0.822049
 21.4141	0.822065
 21.4181	0.82208
 21.4221	0.822095
 21.4261	0.82211
 21.4301	0.822125
 21.4341	0.822141
 21.4381	0.822156
 21.4421	0.822171
 21.4461	0.822186
 21.4501	0.822201
 21.4541	0.822217
 21.4581	0.822232
 21.4621	0.822247
 21.4661	0.822262
 21.4701	0.822277
 21.4741	0.822292
 21.4781	0.822308
 21.4821	0.822323
 21.4861	0.822338
 21.4901	0.822353
 21.4941	0.822368
 21.4981	0.822383
 21.5022	0.822398
 21.5062	0.822413
 21.5102	0.822428
 21.5142	0.822443
 21.5182	0.822459
 21.5222	0.822474
 21.5262	0.822489
 21.5302	0.822504
 21.5342	0.822519
 21.5382	0.822534
 21.5422	0.822549
 21.5462	0.822564
 21.5502	0.822579
 21.5542	0.822594
 21.5582	0.822609
 21.5622	0.822624
 21.5662	0.822639
 21.5702	0.822654
 21.5742	0.822669
 21.5782	0.822684
 21.5822	0.822699
 21.5862	0.822714
 21.5902	0.822729
 21.5942	0.822744
 21.5982	0.822759
 21.6022	0.822774
 21.6062	0.822789
 21.6102	0.822803
 21.6142	0.822818
 21.6182	0.822833
 21.6222	0.822848
 21.6262	0.822863
 21.6302	0.822878
 21.6342	0.822893
 21.6382	0.822908
 21.6422	0.822923
 21.6462	0.822938
 21.6502	0.822952
 21.6542	0.822967
 21.6582	0.822982
 21.6622	0.822997
 21.6662	0.823012
 21.6702	0.823027
 21.6742	0.823041
 21.6782	0.823056
 21.6822	0.823071
 21.6862	0.823086
 21.6902	0.823101
 21.6942	0.823115
 21.6982	0.82313
 21.7022	0.823145
 21.7062	0.82316
 21.7102	0.823175
 21.7142	0.823189
 21.7182	0.823204
 21.7222	0.823219
 21.7262	0.823234
 21.7302	0.823248
 21.7342	0.823263
 21.7382	0.823278
 21.7422	0.823293
 21.7462	0.823307
 21.7502	0.823322
 21.7542	0.823337
 21.7582	0.823351
 21.7622	0.823366
 21.7662	0.823381
 21.7702	0.823395
 21.7742	0.82341
 21.7782	0.823425
 21.7822	0.823439
 21.7862	0.823454
 21.7902	0.823469
 21.7942	0.823483
 21.7982	0.823498
 21.8022	0.823513
 21.8062	0.823527
 21.8102	0.823542
 21.8142	0.823556
 21.8182	0.823571
 21.8222	0.823586
 21.8262	0.8236
 21.8302	0.823615
 21.8342	0.823629
 21.8382	0.823644
 21.8422	0.823659
 21.8462	0.823673
 21.8502	0.823688
 21.8542	0.823702
 21.8582	0.823717
 21.8622	0.823731
 21.8662	0.823746
 21.8702	0.82376
 21.8742	0.823775
 21.8782	0.823789
 21.8822	0.823804
 21.8862	0.823818
 21.8902	0.823833
 21.8942	0.823847
 21.8982	0.823862
 21.9022	0.823876
 21.9062	0.823891
 21.9102	0.823905
 21.9142	0.82392
 21.9182	0.823934
 21.9222	0.823949
 21.9262	0.823963
 21.9302	0.823978
 21.9342	0.823992
 21.9382	0.824006
 21.9422	0.824021
 21.9462	0.824035
 21.9502	0.82405
 21.9542	0.824064
 21.9582	0.824078
 21.9622	0.824093
 21.9662	0.824107
 21.9702	0.824122
 21.9742	0.824136
 21.9782	0.82415
 21.9822	0.824165
 21.9862	0.824179
 21.9902	0.824193
 21.9942	0.824208
 21.9982	0.824222
 22.0022	0.824236
 22.0062	0.824251
 22.0102	0.824265
 22.0142	0.824279
 22.0182	0.824294
 22.0222	0.824308
 22.0262	0.824322
 22.0302	0.824336
 22.0342	0.824351
 22.0382	0.824365
 22.0422	0.824379
 22.0462	0.824394
 22.0502	0.824408
 22.0542	0.824422
 22.0582	0.824436
 22.0622	0.824451
 22.0662	0.824465
 22.0702	0.824479
 22.0742	0.824493
 22.0782	0.824507
 22.0822	0.824522
 22.0862	0.824536
 22.0902	0.82455
 22.0942	0.824564
 22.0982	0.824578
 22.1022	0.824593
 22.1062	0.824607
 22.1102	0.824621
 22.1142	0.824635
 22.1182	0.824649
 22.1222	0.824663
 22.1262	0.824678
 22.1302	0.824692
 22.1342	0.824706
 22.1382	0.82472
 22.1422	0.824734
 22.1462	0.824748
 22.1502	0.824762
 22.1542	0.824776
 22.1582	0.82479
 22.1622	0.824805
 22.1662	0.824819
 22.1702	0.824833
 22.1742	0.824847
 22.1782	0.824861
 22.1822	0.824875
 22.1862	0.824889
 22.1902	0.824903
 22.1942	0.824917
 22.1982	0.824931
 22.2022	0.824945
 22.2062	0.824959
 22.2102	0.824973
 22.2142	0.824987
 22.2182	0.825001
 22.2222	0.825015
 22.2262	0.825029
 22.2302	0.825043
 22.2342	0.825057
 22.2382	0.825071
 22.2422	0.825085
 22.2462	0.825099
 22.2502	0.825113
 22.2542	0.825127
 22.2582	0.825141
 22.2622	0.825155
 22.2662	0.825169
 22.2702	0.825183
 22.2742	0.825197
 22.2782	0.825211
 22.2822	0.825224
 22.2862	0.825238
 22.2902	0.825252
 22.2942	0.825266
 22.2982	0.82528
 22.3022	0.825294
 22.3062	0.825308
 22.3102	0.825322
 22.3142	0.825336
 22.3182	0.825349
 22.3222	0.825363
 22.3262	0.825377
 22.3302	0.825391
 22.3342	0.825405
 22.3382	0.825419
 22.3422	0.825433
 22.3462	0.825446
 22.3502	0.82546
 22.3542	0.825474
 22.3582	0.825488
 22.3622	0.825502
 22.3662	0.825515
 22.3702	0.825529
 22.3742	0.825543
 22.3782	0.825557
 22.3822	0.82557
 22.3862	0.825584
 22.3902	0.825598
 22.3942	0.825612
 22.3982	0.825625
 22.4022	0.825639
 22.4062	0.825653
 22.4102	0.825667
 22.4142	0.82568
 22.4182	0.825694
 22.4222	0.825708
 22.4262	0.825722
 22.4302	0.825735
 22.4342	0.825749
 22.4382	0.825763
 22.4422	0.825776
 22.4462	0.82579
 22.4502	0.825804
 22.4542	0.825817
 22.4582	0.825831
 22.4622	0.825845
 22.4662	0.825858
 22.4702	0.825872
 22.4742	0.825886
 22.4782	0.825899
 22.4822	0.825913
 22.4862	0.825926
 22.4902	0.82594
 22.4942	0.825954
 22.4982	0.825967
 22.5023	0.825981
 22.5063	0.825994
 22.5103	0.826008
 22.5143	0.826022
 22.5183	0.826035
 22.5223	0.826049
 22.5263	0.826062
 22.5303	0.826076
 22.5343	0.826089
 22.5383	0.826103
 22.5423	0.826117
 22.5463	0.82613
 22.5503	0.826144
 22.5543	0.826157
 22.5583	0.826171
 22.5623	0.826184
 22.5663	0.826198
 22.5703	0.826211
 22.5743	0.826225
 22.5783	0.826238
 22.5823	0.826252
 22.5863	0.826265
 22.5903	0.826279
 22.5943	0.826292
 22.5983	0.826306
 22.6023	0.826319
 22.6063	0.826332
 22.6103	0.826346
 22.6143	0.826359
 22.6183	0.826373
 22.6223	0.826386
 22.6263	0.8264
 22.6303	0.826413
 22.6343	0.826427
 22.6383	0.82644
 22.6423	0.826453
 22.6463	0.826467
 22.6503	0.82648
 22.6543	0.826493
 22.6583	0.826507
 22.6623	0.82652
 22.6663	0.826534
 22.6703	0.826547
 22.6743	0.82656
 22.6783	0.826574
 22.6823	0.826587
 22.6863	0.8266
 22.6903	0.826614
 22.6943	0.826627
 22.6983	0.82664
 22.7023	0.826654
 22.7063	0.826667
 22.7103	0.82668
 22.7143	0.826694
 22.7183	0.826707
 22.7223	0.82672
 22.7263	0.826733
 22.7303	0.826747
 22.7343	0.82676
 22.7383	0.826773
 22.7423	0.826787
 22.7463	0.8268
 22.7503	0.826813
 22.7543	0.826826
 22.7583	0.82684
 22.7623	0.826853
 22.7663	0.826866
 22.7703	0.826879
 22.7743	0.826892
 22.7783	0.826906
 22.7823	0.826919
 22.7863	0.826932
 22.7903	0.826945
 22.7943	0.826959
 22.7983	0.826972
 22.8023	0.826985
 22.8063	0.826998
 22.8103	0.827011
 22.8143	0.827024
 22.8183	0.827038
 22.8223	0.827051
 22.8263	0.827064
 22.8303	0.827077
 22.8343	0.82709
 22.8383	0.827103
 22.8423	0.827116
 22.8463	0.82713
 22.8503	0.827143
 22.8543	0.827156
 22.8583	0.827169
 22.8623	0.827182
 22.8663	0.827195
 22.8703	0.827208
 22.8743	0.827221
 22.8783	0.827234
 22.8823	0.827247
 22.8863	0.82726
 22.8903	0.827274
 22.8943	0.827287
 22.8983	0.8273
 22.9023	0.827313
 22.9063	0.827326
 22.9103	0.827339
 22.9143	0.827352
 22.9183	0.827365
 22.9223	0.827378
 22.9263	0.827391
 22.9303	0.827404
 22.9343	0.827417
 22.9383	0.82743
 22.9423	0.827443
 22.9463	0.827456
 22.9503	0.827469
 22.9543	0.827482
 22.9583	0.827495
 22.9623	0.827508
 22.9663	0.827521
 22.9703	0.827534
 22.9743	0.827547
 22.9783	0.82756
 22.9823	0.827572
 22.9863	0.827585
 22.9903	0.827598
 22.9943	0.827611
 22.9983	0.827624
 23.0023	0.827637
 23.0063	0.82765
 23.0103	0.827663
 23.0143	0.827676
 23.0183	0.827689
 23.0223	0.827702
 23.0263	0.827714
 23.0303	0.827727
 23.0343	0.82774
 23.0383	0.827753
 23.0423	0.827766
 23.0463	0.827779
 23.0503	0.827792
 23.0543	0.827804
 23.0583	0.827817
 23.0623	0.82783
 23.0663	0.827843
 23.0703	0.827856
 23.0743	0.827869
 23.0783	0.827881
 23.0823	0.827894
 23.0863	0.827907
 23.0903	0.82792
 23.0943	0.827933
 23.0983	0.827945
 23.1023	0.827958
 23.1063	0.827971
 23.1103	0.827984
 23.1143	0.827996
 23.1183	0.828009
 23.1223	0.828022
 23.1263	0.828035
 23.1303	0.828047
 23.1343	0.82806
 23.1383	0.828073
 23.1423	0.828086
 23.1463	0.828098
 23.1503	0.828111
 23.1543	0.828124
 23.1583	0.828136
 23.1623	0.828149
 23.1663	0.828162
 23.1703	0.828175
 23.1743	0.828187
 23.1783	0.8282
 23.1823	0.828213
 23.1863	0.828225
 23.1903	0.828238
 23.1943	0.828251
 23.1983	0.828263
 23.2023	0.828276
 23.2063	0.828289
 23.2103	0.828301
 23.2143	0.828314
 23.2183	0.828326
 23.2223	0.828339
 23.2263	0.828352
 23.2303	0.828364
 23.2343	0.828377
 23.2383	0.828389
 23.2423	0.828402
 23.2463	0.828415
 23.2503	0.828427
 23.2543	0.82844
 23.2583	0.828452
 23.2623	0.828465
 23.2663	0.828478
 23.2703	0.82849
 23.2743	0.828503
 23.2783	0.828515
 23.2823	0.828528
 23.2863	0.82854
 23.2903	0.828553
 23.2943	0.828565
 23.2983	0.828578
 23.3023	0.82859
 23.3063	0.828603
 23.3103	0.828615
 23.3143	0.828628
 23.3183	0.82864
 23.3223	0.828653
 23.3263	0.828665
 23.3303	0.828678
 23.3343	0.82869
 23.3383	0.828703
 23.3423	0.828715
 23.3463	0.828728
 23.3503	0.82874
 23.3543	0.828753
 23.3583	0.828765
 23.3623	0.828778
 23.3663	0.82879
 23.3703	0.828802
 23.3743	0.828815
 23.3783	0.828827
 23.3823	0.82884
 23.3863	0.828852
 23.3903	0.828864
 23.3943	0.828877
 23.3983	0.828889
 23.4023	0.828902
 23.4063	0.828914
 23.4103	0.828926
 23.4143	0.828939
 23.4183	0.828951
 23.4223	0.828964
 23.4263	0.828976
 23.4303	0.828988
 23.4343	0.829001
 23.4383	0.829013
 23.4423	0.829025
 23.4463	0.829038
 23.4503	0.82905
 23.4543	0.829062
 23.4583	0.829075
 23.4623	0.829087
 23.4663	0.829099
 23.4703	0.829111
 23.4743	0.829124
 23.4783	0.829136
 23.4823	0.829148
 23.4863	0.829161
 23.4903	0.829173
 23.4943	0.829185
 23.4983	0.829197
 23.5024	0.82921
 23.5064	0.829222
 23.5104	0.829234
 23.5144	0.829246
 23.5184	0.829259
 23.5224	0.829271
 23.5264	0.829283
 23.5304	0.829295
 23.5344	0.829308
 23.5384	0.82932
 23.5424	0.829332
 23.5464	0.829344
 23.5504	0.829356
 23.5544	0.829369
 23.5584	0.829381
 23.5624	0.829393
 23.5664	0.829405
 23.5704	0.829417
 23.5744	0.82943
 23.5784	0.829442
 23.5824	0.829454
 23.5864	0.829466
 23.5904	0.829478
 23.5944	0.82949
 23.5984	0.829502
 23.6024	0.829515
 23.6064	0.829527
 23.6104	0.829539
 23.6144	0.829551
 23.6184	0.829563
 23.6224	0.829575
 23.6264	0.829587
 23.6304	0.829599
 23.6344	0.829612
 23.6384	0.829624
 23.6424	0.829636
 23.6464	0.829648
 23.6504	0.82966
 23.6544	0.829672
 23.6584	0.829684
 23.6624	0.829696
 23.6664	0.829708
 23.6704	0.82972
 23.6744	0.829732
 23.6784	0.829744
 23.6824	0.829756
 23.6864	0.829768
 23.6904	0.82978
 23.6944	0.829792
 23.6984	0.829804
 23.7024	0.829816
 23.7064	0.829828
 23.7104	0.82984
 23.7144	0.829852
 23.7184	0.829864
 23.7224	0.829876
 23.7264	0.829888
 23.7304	0.8299
 23.7344	0.829912
 23.7384	0.829924
 23.7424	0.829936
 23.7464	0.829948
 23.7504	0.82996
 23.7544	0.829972
 23.7584	0.829984
 23.7624	0.829996
 23.7664	0.830008
 23.7704	0.83002
 23.7744	0.830032
 23.7784	0.830044
 23.7824	0.830056
 23.7864	0.830068
 23.7904	0.830079
 23.7944	0.830091
 23.7984	0.830103
 23.8024	0.830115
 23.8064	0.830127
 23.8104	0.830139
 23.8144	0.830151
 23.8184	0.830163
 23.8224	0.830175
 23.8264	0.830186
 23.8304	0.830198
 23.8344	0.83021
 23.8384	0.830222
 23.8424	0.830234
 23.8464	0.830246
 23.8504	0.830257
 23.8544	0.830269
 23.8584	0.830281
 23.8624	0.830293
 23.8664	0.830305
 23.8704	0.830317
 23.8744	0.830328
 23.8784	0.83034
 23.8824	0.830352
 23.8864	0.830364
 23.8904	0.830375
 23.8944	0.830387
 23.8984	0.830399
 23.9024	0.830411
 23.9064	0.830423
 23.9104	0.830434
 23.9144	0.830446
 23.9184	0.830458
 23.9224	0.83047
 23.9264	0.830481
 23.9304	0.830493
 23.9344	0.830505
 23.9384	0.830516
 23.9424	0.830528
 23.9464	0.83054
 23.9504	0.830552
 23.9544	0.830563
 23.9584	0.830575
 23.9624	0.830587
 23.9664	0.830598
 23.9704	0.83061
 23.9744	0.830622
 23.9784	0.830633
 23.9824	0.830645
 23.9864	0.830657
 23.9904	0.830668
 23.9944	0.83068
 23.9984	0.830692
 24.0024	0.830703
 24.0064	0.830715
 24.0104	0.830727
 24.0144	0.830738
 24.0184	0.83075
 24.0224	0.830762
 24.0264	0.830773
 24.0304	0.830785
 24.0344	0.830796
 24.0384	0.830808
 24.0424	0.83082
 24.0464	0.830831
 24.0504	0.830843
 24.0544	0.830854
 24.0584	0.830866
 24.0624	0.830878
 24.0664	0.830889
 24.0704	0.830901
 24.0744	0.830912
 24.0784	0.830924
 24.0824	0.830935
 24.0864	0.830947
 24.0904	0.830958
 24.0944	0.83097
 24.0984	0.830982
 24.1024	0.830993
 24.1064	0.831005
 24.1104	0.831016
 24.1144	0.831028
 24.1184	0.831039
 24.1224	0.831051
 24.1264	0.831062
 24.1304	0.831074
 24.1344	0.831085
 24.1384	0.831097
 24.1424	0.831108
 24.1464	0.83112
 24.1504	0.831131
 24.1544	0.831143
 24.1584	0.831154
 24.1624	0.831165
 24.1664	0.831177
 24.1704	0.831188
 24.1744	0.8312
 24.1784	0.831211
 24.1824	0.831223
 24.1864	0.831234
 24.1904	0.831246
 24.1944	0.831257
 24.1984	0.831268
 24.2024	0.83128
 24.2064	0.831291
 24.2104	0.831303
 24.2144	0.831314
 24.2184	0.831325
 24.2224	0.831337
 24.2264	0.831348
 24.2304	0.83136
 24.2344	0.831371
 24.2384	0.831382
 24.2424	0.831394
 24.2464	0.831405
 24.2504	0.831416
 24.2544	0.831428
 24.2584	0.831439
 24.2624	0.83145
 24.2664	0.831462
 24.2704	0.831473
 24.2744	0.831484
 24.2784	0.831496
 24.2824	0.831507
 24.2864	0.831518
 24.2904	0.83153
 24.2944	0.831541
 24.2984	0.831552
 24.3024	0.831564
 24.3064	0.831575
 24.3104	0.831586
 24.3144	0.831597
 24.3184	0.831609
 24.3224	0.83162
 24.3264	0.831631
 24.3304	0.831643
 24.3344	0.831654
 24.3384	0.831665
 24.3424	0.831676
 24.3464	0.831688
 24.3504	0.831699
 24.3544	0.83171
 24.3584	0.831721
 24.3624	0.831732
 24.3664	0.831744
 24.3704	0.831755
 24.3744	0.831766
 24.3784	0.831777
 24.3824	0.831789
 24.3864	0.8318
 24.3904	0.831811
 24.3944	0.831822
 24.3984	0.831833
 24.4024	0.831845
 24.4064	0.831856
 24.4104	0.831867
 24.4144	0.831878
 24.4184	0.831889
 24.4224	0.8319
 24.4264	0.831911
 24.4304	0.831923
 24.4344	0.831934
 24.4384	0.831945
 24.4424	0.831956
 24.4464	0.831967
 24.4504	0.831978
 24.4544	0.831989
 24.4584	0.832001
 24.4624	0.832012
 24.4664	0.832023
 24.4704	0.832034
 24.4744	0.832045
 24.4784	0.832056
 24.4824	0.832067
 24.4864	0.832078
 24.4904	0.832089
 24.4944	0.8321
 24.4984	0.832111
 24.5025	0.832123
 24.5065	0.832134
 24.5105	0.832145
 24.5145	0.832156
 24.5185	0.832167
 24.5225	0.832178
 24.5265	0.832189
 24.5305	0.8322
 24.5345	0.832211
 24.5385	0.832222
 24.5425	0.832233
 24.5465	0.832244
 24.5505	0.832255
 24.5545	0.832266
 24.5585	0.832277
 24.5625	0.832288
 24.5665	0.832299
 24.5705	0.83231
 24.5745	0.832321
 24.5785	0.832332
 24.5825	0.832343
 24.5865	0.832354
 24.5905	0.832365
 24.5945	0.832376
 24.5985	0.832387
 24.6025	0.832398
 24.6065	0.832409
 24.6105	0.83242
 24.6145	0.832431
 24.6185	0.832442
 24.6225	0.832452
 24.6265	0.832463
 24.6305	0.832474
 24.6345	0.832485
 24.6385	0.832496
 24.6425	0.832507
 24.6465	0.832518
 24.6505	0.832529
 24.6545	0.83254
 24.6585	0.832551
 24.6625	0.832562
 24.6665	0.832572
 24.6705	0.832583
 24.6745	0.832594
 24.6785	0.832605
 24.6825	0.832616
 24.6865	0.832627
 24.6905	0.832638
 24.6945	0.832649
 24.6985	0.832659
 24.7025	0.83267
 24.7065	0.832681
 24.7105	0.832692
 24.7145	0.832703
 24.7185	0.832714
 24.7225	0.832724
 24.7265	0.832735
 24.7305	0.832746
 24.7345	0.832757
 24.7385	0.832768
 24.7425	0.832778
 24.7465	0.832789
 24.7505	0.8328
 24.7545	0.832811
 24.7585	0.832822
 24.7625	0.832832
 24.7665	0.832843
 24.7705	0.832854
 24.7745	0.832865
 24.7785	0.832875
 24.7825	0.832886
 24.7865	0.832897
 24.7905	0.832908
 24.7945	0.832918
 24.7985	0.832929
 24.8025	0.83294
 24.8065	0.832951
 24.8105	0.832961
 24.8145	0.832972
 24.8185	0.832983
 24.8225	0.832994
 24.8265	0.833004
 24.8305	0.833015
 24.8345	0.833026
 24.8385	0.833036
 24.8425	0.833047
 24.8465	0.833058
 24.8505	0.833068
 24.8545	0.833079
 24.8585	0.83309
 24.8625	0.8331
 24.8665	0.833111
 24.8705	0.833122
 24.8745	0.833132
 24.8785	0.833143
 24.8825	0.833154
 24.8865	0.833164
 24.8905	0.833175
 24.8945	0.833186
 24.8985	0.833196
 24.9025	0.833207
 24.9065	0.833217
 24.9105	0.833228
 24.9145	0.833239
 24.9185	0.833249
 24.9225	0.83326
 24.9265	0.833271
 24.9305	0.833281
 24.9345	0.833292
 24.9385	0.833302
 24.9425	0.833313
 24.9465	0.833323
 24.9505	0.833334
 24.9545	0.833345
 24.9585	0.833355
 24.9625	0.833366
 24.9665	0.833376
 24.9705	0.833387
 24.9745	0.833397
 24.9785	0.833408
 24.9825	0.833418
 24.9865	0.833429
 24.9905	0.83344
 24.9945	0.83345
 24.9985	0.833461
 25.0025	0.833471
 25.0065	0.833482
 25.0105	0.833493
 25.0145	0.833503
 25.0185	0.833514
 25.0225	0.833524
 25.0265	0.833535
 25.0305	0.833546
 25.0345	0.833556
 25.0385	0.833567
 25.0425	0.833578
 25.0465	0.833588
 25.0505	0.833599
 25.0545	0.833609
 25.0585	0.83362
 25.0625	0.833631
 25.0665	0.833641
 25.0705	0.833652
 25.0745	0.833662
 25.0785	0.833673
 25.0825	0.833684
 25.0865	0.833694
 25.0905	0.833705
 25.0945	0.833715
 25.0985	0.833726
 25.1025	0.833736
 25.1065	0.833747
 25.1105	0.833757
 25.1145	0.833768
 25.1185	0.833778
 25.1225	0.833789
 25.1265	0.8338
 25.1305	0.83381
 25.1345	0.833821
 25.1385	0.833831
 25.1425	0.833842
 25.1465	0.833852
 25.1505	0.833863
 25.1545	0.833873
 25.1585	0.833884
 25.1625	0.833894
 25.1665	0.833905
 25.1705	0.833915
 25.1745	0.833926
 25.1785	0.833936
 25.1825	0.833946
 25.1865	0.833957
 25.1905	0.833967
 25.1945	0.833978
 25.1985	0.833988
 25.2025	0.833999
 25.2065	0.834009
 25.2105	0.83402
 25.2145	0.83403
 25.2185	0.834041
 25.2225	0.834051
 25.2265	0.834061
 25.2305	0.834072
 25.2345	0.834082
 25.2385	0.834093
 25.2425	0.834103
 25.2465	0.834113
 25.2505	0.834124
 25.2545	0.834134
 25.2585	0.834145
 25.2625	0.834155
 25.2665	0.834165
 25.2705	0.834176
 25.2745	0.834186
 25.2785	0.834197
 25.2825	0.834207
 25.2865	0.834217
 25.2905	0.834228
 25.2945	0.834238
 25.2985	0.834248
 25.3025	0.834259
 25.3065	0.834269
 25.3105	0.834279
 25.3145	0.83429
 25.3185	0.8343
 25.3225	0.83431
 25.3265	0.834321
 25.3305	0.834331
 25.3345	0.834341
 25.3385	0.834352
 25.3425	0.834362
 25.3465	0.834372
 25.3505	0.834382
 25.3545	0.834393
 25.3585	0.834403
 25.3625	0.834413
 25.3665	0.834424
 25.3705	0.834434
 25.3745	0.834444
 25.3785	0.834454
 25.3825	0.834465
 25.3865	0.834475
 25.3905	0.834485
 25.3945	0.834495
 25.3985	0.834506
 25.4025	0.834516
 25.4065	0.834526
 25.4105	0.834536
 25.4145	0.834547
 25.4185	0.834557
 25.4225	0.834567
 25.4265	0.834577
 25.4305	0.834588
 25.4345	0.834598
 25.4385	0.834608
 25.4425	0.834618
 25.4465	0.834628
 25.4505	0.834639
 25.4545	0.834649
 25.4585	0.834659
 25.4625	0.834669
 25.4665	0.834679
 25.4705	0.834689
 25.4745	0.8347
 25.4785	0.83471
 25.4825	0.83472
 25.4865	0.83473
 25.4905	0.83474
 25.4945	0.83475
 25.4985	0.834761
 25.5026	0.834771
 25.5066	0.834781
 25.5106	0.834791
 25.5146	0.834801
 25.5186	0.834811
 25.5226	0.834821
 25.5266	0.834831
 25.5306	0.834842
 25.5346	0.834852
 25.5386	0.834862
 25.5426	0.834872
 25.5466	0.834882
 25.5506	0.834892
 25.5546	0.834902
 25.5586	0.834912
 25.5626	0.834922
 25.5666	0.834932
 25.5706	0.834942
 25.5746	0.834953
 25.5786	0.834963
 25.5826	0.834973
 25.5866	0.834983
 25.5906	0.834993
 25.5946	0.835003
 25.5986	0.835013
 25.6026	0.835023
 25.6066	0.835033
 25.6106	0.835043
 25.6146	0.835053
 25.6186	0.835063
 25.6226	0.835073
 25.6266	0.835083
 25.6306	0.835093
 25.6346	0.835103
 25.6386	0.835113
 25.6426	0.835123
 25.6466	0.835133
 25.6506	0.835143
 25.6546	0.835153
 25.6586	0.835163
 25.6626	0.835173
 25.6666	0.835183
 25.6706	0.835193
 25.6746	0.835203
 25.6786	0.835213
 25.6826	0.835223
 25.6866	0.835233
 25.6906	0.835243
 25.6946	0.835253
 25.6986	0.835263
 25.7026	0.835273
 25.7066	0.835283
 25.7106	0.835292
 25.7146	0.835302
 25.7186	0.835312
 25.7226	0.835322
 25.7266	0.835332
 25.7306	0.835342
 25.7346	0.835352
 25.7386	0.835362
 25.7426	0.835372
 25.7466	0.835382
 25.7506	0.835392
 25.7546	0.835401
 25.7586	0.835411
 25.7626	0.835421
 25.7666	0.835431
 25.7706	0.835441
 25.7746	0.835451
 25.7786	0.835461
 25.7826	0.835471
 25.7866	0.83548
 25.7906	0.83549
 25.7946	0.8355
 25.7986	0.83551
 25.8026	0.83552
 25.8066	0.83553
 25.8106	0.835539
 25.8146	0.835549
 25.8186	0.835559
 25.8226	0.835569
 25.8266	0.835579
 25.8306	0.835589
 25.8346	0.835598
 25.8386	0.835608
 25.8426	0.835618
 25.8466	0.835628
 25.8506	0.835638
 25.8546	0.835647
 25.8586	0.835657
 25.8626	0.835667
 25.8666	0.835677
 25.8706	0.835687
 25.8746	0.835696
 25.8786	0.835706
 25.8826	0.835716
 25.8866	0.835726
 25.8906	0.835735
 25.8946	0.835745
 25.8986	0.835755
 25.9026	0.835765
 25.9066	0.835774
 25.9106	0.835784
 25.9146	0.835794
 25.9186	0.835804
 25.9226	0.835813
 25.9266	0.835823
 25.9306	0.835833
 25.9346	0.835842
 25.9386	0.835852
 25.9426	0.835862
 25.9466	0.835872
 25.9506	0.835881
 25.9546	0.835891
 25.9586	0.835901
 25.9626	0.83591
 25.9666	0.83592
 25.9706	0.83593
 25.9746	0.835939
 25.9786	0.835949
 25.9826	0.835959
 25.9866	0.835968
 25.9906	0.835978
 25.9946	0.835988
 25.9986	0.835997
 26.0026	0.836007
 26.0066	0.836017
 26.0106	0.836026
 26.0146	0.836036
 26.0186	0.836046
 26.0226	0.836055
 26.0266	0.836065
 26.0306	0.836074
 26.0346	0.836084
 26.0386	0.836094
 26.0426	0.836103
 26.0466	0.836113
 26.0506	0.836123
 26.0546	0.836132
 26.0586	0.836142
 26.0626	0.836151
 26.0666	0.836161
 26.0706	0.83617
 26.0746	0.83618
 26.0786	0.83619
 26.0826	0.836199
 26.0866	0.836209
 26.0906	0.836218
 26.0946	0.836228
 26.0986	0.836237
 26.1026	0.836247
 26.1066	0.836257
 26.1106	0.836266
 26.1146	0.836276
 26.1186	0.836285
 26.1226	0.836295
 26.1266	0.836304
 26.1306	0.836314
 26.1346	0.836323
 26.1386	0.836333
 26.1426	0.836342
 26.1466	0.836352
 26.1506	0.836361
 26.1546	0.836371
 26.1586	0.83638
 26.1626	0.83639
 26.1666	0.836399
 26.1706	0.836409
 26.1746	0.836418
 26.1786	0.836428
 26.1826	0.836437
 26.1866	0.836447
 26.1906	0.836456
 26.1946	0.836466
 26.1986	0.836475
 26.2026	0.836485
 26.2066	0.836494
 26.2106	0.836504
 26.2146	0.836513
 26.2186	0.836522
 26.2226	0.836532
 26.2266	0.836541
 26.2306	0.836551
 26.2346	0.83656
 26.2386	0.83657
 26.2426	0.836579
 26.2466	0.836588
 26.2506	0.836598
 26.2546	0.836607
 26.2586	0.836617
 26.2626	0.836626
 26.2666	0.836636
 26.2706	0.836645
 26.2746	0.836654
 26.2786	0.836664
 26.2826	0.836673
 26.2866	0.836682
 26.2906	0.836692
 26.2946	0.836701
 26.2986	0.836711
 26.3026	0.83672
 26.3066	0.836729
 26.3106	0.836739
 26.3146	0.836748
 26.3186	0.836757
 26.3226	0.836767
 26.3266	0.836776
 26.3306	0.836785
 26.3346	0.836795
 26.3386	0.836804
 26.3426	0.836813
 26.3466	0.836823
 26.3506	0.836832
 26.3546	0.836841
 26.3586	0.836851
 26.3626	0.83686
 26.3666	0.836869
 26.3706	0.836879
 26.3746	0.836888
 26.3786	0.836897
 26.3826	0.836907
 26.3866	0.836916
 26.3906	0.836925
 26.3946	0.836934
 26.3986	0.836944
 26.4026	0.836953
 26.4066	0.836962
 26.4106	0.836971
 26.4146	0.836981
 26.4186	0.83699
 26.4226	0.836999
 26.4266	0.837009
 26.4306	0.837018
 26.4346	0.837027
 26.4386	0.837036
 26.4426	0.837046
 26.4466	0.837055
 26.4506	0.837064
 26.4546	0.837073
 26.4586	0.837082
 26.4626	0.837092
 26.4666	0.837101
 26.4706	0.83711
 26.4746	0.837119
 26.4786	0.837128
 26.4826	0.837138
 26.4866	0.837147
 26.4906	0.837156
 26.4946	0.837165
 26.4986	0.837174
 26.5027	0.837184
 26.5067	0.837193
 26.5107	0.837202
 26.5147	0.837211
 26.5187	0.83722
 26.5227	0.83723
 26.5267	0.837239
 26.5307	0.837248
 26.5347	0.837257
 26.5387	0.837266
 26.5427	0.837275
 26.5467	0.837284
 26.5507	0.837294
 26.5547	0.837303
 26.5587	0.837312
 26.5627	0.837321
 26.5667	0.83733
 26.5707	0.837339
 26.5747	0.837348
 26.5787	0.837357
 26.5827	0.837367
 26.5867	0.837376
 26.5907	0.837385
 26.5947	0.837394
 26.5987	0.837403
 26.6027	0.837412
 26.6067	0.837421
 26.6107	0.83743
 26.6147	0.837439
 26.6187	0.837448
 26.6227	0.837458
 26.6267	0.837467
 26.6307	0.837476
 26.6347	0.837485
 26.6387	0.837494
 26.6427	0.837503
 26.6467	0.837512
 26.6507	0.837521
 26.6547	0.83753
 26.6587	0.837539
 26.6627	0.837548
 26.6667	0.837557
 26.6707	0.837566
 26.6747	0.837575
 26.6787	0.837584
 26.6827	0.837593
 26.6867	0.837602
 26.6907	0.837611
 26.6947	0.83762
 26.6987	0.837629
 26.7027	0.837638
 26.7067	0.837647
 26.7107	0.837656
 26.7147	0.837665
 26.7187	0.837674
 26.7227	0.837683
 26.7267	0.837692
 26.7307	0.837701
 26.7347	0.83771
 26.7387	0.837719
 26.7427	0.837728
 26.7467	0.837737
 26.7507	0.837746
 26.7547	0.837755
 26.7587	0.837764
 26.7627	0.837773
 26.7667	0.837782
 26.7707	0.837791
 26.7747	0.8378
 26.7787	0.837809
 26.7827	0.837818
 26.7867	0.837827
 26.7907	0.837836
 26.7947	0.837844
 26.7987	0.837853
 26.8027	0.837862
 26.8067	0.837871
 26.8107	0.83788
 26.8147	0.837889
 26.8187	0.837898
 26.8227	0.837907
 26.8267	0.837916
 26.8307	0.837925
 26.8347	0.837934
 26.8387	0.837942
 26.8427	0.837951
 26.8467	0.83796
 26.8507	0.837969
 26.8547	0.837978
 26.8587	0.837987
 26.8627	0.837996
 26.8667	0.838005
 26.8707	0.838013
 26.8747	0.838022
 26.8787	0.838031
 26.8827	0.83804
 26.8867	0.838049
 26.8907	0.838058
 26.8947	0.838066
 26.8987	0.838075
 26.9027	0.838084
 26.9067	0.838093
 26.9107	0.838102
 26.9147	0.838111
 26.9187	0.838119
 26.9227	0.838128
 26.9267	0.838137
 26.9307	0.838146
 26.9347	0.838155
 26.9387	0.838163
 26.9427	0.838172
 26.9467	0.838181
 26.9507	0.83819
 26.9547	0.838199
 26.9587	0.838207
 26.9627	0.838216
 26.9667	0.838225
 26.9707	0.838234
 26.9747	0.838242
 26.9787	0.838251
 26.9827	0.83826
 26.9867	0.838269
 26.9907	0.838278
 26.9947	0.838286
 26.9987	0.838295
 27.0027	0.838304
 27.0067	0.838312
 27.0107	0.838321
 27.0147	0.83833
 27.0187	0.838339
 27.0227	0.838347
 27.0267	0.838356
 27.0307	0.838365
 27.0347	0.838374
 27.0387	0.838382
 27.0427	0.838391
 27.0467	0.8384
 27.0507	0.838408
 27.0547	0.838417
 27.0587	0.838426
 27.0627	0.838435
 27.0667	0.838443
 27.0707	0.838452
 27.0747	0.838461
 27.0787	0.838469
 27.0827	0.838478
 27.0867	0.838487
 27.0907	0.838495
 27.0947	0.838504
 27.0987	0.838513
 27.1027	0.838521
 27.1067	0.83853
 27.1107	0.838539
 27.1147	0.838547
 27.1187	0.838556
 27.1227	0.838565
 27.1267	0.838573
 27.1307	0.838582
 27.1347	0.83859
 27.1387	0.838599
 27.1427	0.838608
 27.1467	0.838616
 27.1507	0.838625
 27.1547	0.838634
 27.1587	0.838642
 27.1627	0.838651
 27.1667	0.838659
 27.1707	0.838668
 27.1747	0.838677
 27.1787	0.838685
 27.1827	0.838694
 27.1867	0.838702
 27.1907	0.838711
 27.1947	0.838719
 27.1987	0.838728
 27.2027	0.838737
 27.2067	0.838745
 27.2107	0.838754
 27.2147	0.838762
 27.2187	0.838771
 27.2227	0.838779
 27.2267	0.838788
 27.2307	0.838797
 27.2347	0.838805
 27.2387	0.838814
 27.2427	0.838822
 27.2467	0.838831
 27.2507	0.838839
 27.2547	0.838848
 27.2587	0.838856
 27.2627	0.838865
 27.2667	0.838873
 27.2707	0.838882
 27.2747	0.83889
 27.2787	0.838899
 27.2827	0.838907
 27.2867	0.838916
 27.2907	0.838924
 27.2947	0.838933
 27.2987	0.838941
 27.3027	0.83895
 27.3067	0.838958
 27.3107	0.838967
 27.3147	0.838975
 27.3187	0.838984
 27.3227	0.838992
 27.3267	0.839001
 27.3307	0.839009
 27.3347	0.839018
 27.3387	0.839026
 27.3427	0.839035
 27.3467	0.839043
 27.3507	0.839052
 27.3547	0.83906
 27.3587	0.839068
 27.3627	0.839077
 27.3667	0.839085
 27.3707	0.839094
 27.3747	0.839102
 27.3787	0.839111
 27.3827	0.839119
 27.3867	0.839127
 27.3907	0.839136
 27.3947	0.839144
 27.3987	0.839153
 27.4027	0.839161
 27.4067	0.83917
 27.4107	0.839178
 27.4147	0.839186
 27.4187	0.839195
 27.4227	0.839203
 27.4267	0.839212
 27.4307	0.83922
 27.4347	0.839228
 27.4387	0.839237
 27.4427	0.839245
 27.4467	0.839253
 27.4507	0.839262
 27.4547	0.83927
 27.4587	0.839279
 27.4627	0.839287
 27.4667	0.839295
 27.4707	0.839304
 27.4747	0.839312
 27.4787	0.83932
 27.4827	0.839329
 27.4867	0.839337
 27.4907	0.839345
 27.4947	0.839354
 27.4987	0.839362
 27.5028	0.83937
 27.5068	0.839379
 27.5108	0.839387
 27.5148	0.839395
 27.5188	0.839404
 27.5228	0.839412
 27.5268	0.83942
 27.5308	0.839429
 27.5348	0.839437
 27.5388	0.839445
 27.5428	0.839453
 27.5468	0.839462
 27.5508	0.83947
 27.5548	0.839478
 27.5588	0.839487
 27.5628	0.839495
 27.5668	0.839503
 27.5708	0.839511
 27.5748	0.83952
 27.5788	0.839528
 27.5828	0.839536
 27.5868	0.839544
 27.5908	0.839553
 27.5948	0.839561
 27.5988	0.839569
 27.6028	0.839577
 27.6068	0.839586
 27.6108	0.839594
 27.6148	0.839602
 27.6188	0.83961
 27.6228	0.839619
 27.6268	0.839627
 27.6308	0.839635
 27.6348	0.839643
 27.6388	0.839652
 27.6428	0.83966
 27.6468	0.839668
 27.6508	0.839676
 27.6548	0.839684
 27.6588	0.839693
 27.6628	0.839701
 27.6668	0.839709
 27.6708	0.839717
 27.6748	0.839725
 27.6788	0.839734
 27.6828	0.839742
 27.6868	0.83975
 27.6908	0.839758
 27.6948	0.839766
 27.6988	0.839774
 27.7028	0.839783
 27.7068	0.839791
 27.7108	0.839799
 27.7148	0.839807
 27.7188	0.839815
 27.7228	0.839823
 27.7268	0.839832
 27.7308	0.83984
 27.7348	0.839848
 27.7388	0.839856
 27.7428	0.839864
 27.7468	0.839872
 27.7508	0.83988
 27.7548	0.839888
 27.7588	0.839897
 27.7628	0.839905
 27.7668	0.839913
 27.7708	0.839921
 27.7748	0.839929
 27.7788	0.839937
 27.7828	0.839945
 27.7868	0.839953
 27.7908	0.839961
 27.7948	0.83997
 27.7988	0.839978
 27.8028	0.839986
 27.8068	0.839994
 27.8108	0.840002
 27.8148	0.84001
 27.8188	0.840018
 27.8228	0.840026
 27.8268	0.840034
 27.8308	0.840042
 27.8348	0.84005
 27.8388	0.840058
 27.8428	0.840066
 27.8468	0.840075
 27.8508	0.840083
 27.8548	0.840091
 27.8588	0.840099
 27.8628	0.840107
 27.8668	0.840115
 27.8708	0.840123
 27.8748	0.840131
 27.8788	0.840139
 27.8828	0.840147
 27.8868	0.840155
 27.8908	0.840163
 27.8948	0.840171
 27.8988	0.840179
 27.9028	0.840187
 27.9068	0.840195
 27.9108	0.840203
 27.9148	0.840211
 27.9188	0.840219
 27.9228	0.840227
 27.9268	0.840235
 27.9308	0.840243
 27.9348	0.840251
 27.9388	0.840259
 27.9428	0.840267
 27.9468	0.840275
 27.9508	0.840283
 27.9548	0.840291
 27.9588	0.840299
 27.9628	0.840307
 27.9668	0.840315
 27.9708	0.840323
 27.9748	0.840331
 27.9788	0.840339
 27.9828	0.840346
 27.9868	0.840354
 27.9908	0.840362
 27.9948	0.84037
 27.9988	0.840378
 28.0028	0.840386
 28.0068	0.840394
 28.0108	0.840402
 28.0148	0.84041
 28.0188	0.840418
 28.0228	0.840426
 28.0268	0.840434
 28.0308	0.840442
 28.0348	0.84045
 28.0388	0.840457
 28.0428	0.840465
 28.0468	0.840473
 28.0508	0.840481
 28.0548	0.840489
 28.0588	0.840497
 28.0628	0.840505
 28.0668	0.840513
 28.0708	0.840521
 28.0748	0.840528
 28.0788	0.840536
 28.0828	0.840544
 28.0868	0.840552
 28.0908	0.84056
 28.0948	0.840568
 28.0988	0.840576
 28.1028	0.840584
 28.1068	0.840591
 28.1108	0.840599
 28.1148	0.840607
 28.1188	0.840615
 28.1228	0.840623
 28.1268	0.840631
 28.1308	0.840638
 28.1348	0.840646
 28.1388	0.840654
 28.1428	0.840662
 28.1468	0.84067
 28.1508	0.840678
 28.1548	0.840685
 28.1588	0.840693
 28.1628	0.840701
 28.1668	0.840709
 28.1708	0.840717
 28.1748	0.840724
 28.1788	0.840732
 28.1828	0.84074
 28.1868	0.840748
 28.1908	0.840756
 28.1948	0.840763
 28.1988	0.840771
 28.2028	0.840779
 28.2068	0.840787
 28.2108	0.840794
 28.2148	0.840802
 28.2188	0.84081
 28.2228	0.840818
 28.2268	0.840826
 28.2308	0.840833
 28.2348	0.840841
 28.2388	0.840849
 28.2428	0.840857
 28.2468	0.840864
 28.2508	0.840872
 28.2548	0.84088
 28.2588	0.840888
 28.2628	0.840895
 28.2668	0.840903
 28.2708	0.840911
 28.2748	0.840918
 28.2788	0.840926
 28.2828	0.840934
 28.2868	0.840942
 28.2908	0.840949
 28.2948	0.840957
 28.2988	0.840965
 28.3028	0.840972
 28.3068	0.84098
 28.3108	0.840988
 28.3148	0.840996
 28.3188	0.841003
 28.3228	0.841011
 28.3268	0.841019
 28.3308	0.841026
 28.3348	0.841034
 28.3388	0.841042
 28.3428	0.841049
 28.3468	0.841057
 28.3508	0.841065
 28.3548	0.841072
 28.3588	0.84108
 28.3628	0.841088
 28.3668	0.841095
 28.3708	0.841103
 28.3748	0.841111
 28.3788	0.841118
 28.3828	0.841126
 28.3868	0.841134
 28.3908	0.841141
 28.3948	0.841149
 28.3988	0.841157
 28.4028	0.841164
 28.4068	0.841172
 28.4108	0.841179
 28.4148	0.841187
 28.4188	0.841195
 28.4228	0.841202
 28.4268	0.84121
 28.4308	0.841217
 28.4348	0.841225
 28.4388	0.841233
 28.4428	0.84124
 28.4468	0.841248
 28.4508	0.841256
 28.4548	0.841263
 28.4588	0.841271
 28.4628	0.841278
 28.4668	0.841286
 28.4708	0.841293
 28.4748	0.841301
 28.4788	0.841309
 28.4828	0.841316
 28.4868	0.841324
 28.4908	0.841331
 28.4948	0.841339
 28.4988	0.841346
 28.5029	0.841354
 28.5069	0.841362
 28.5109	0.841369
 28.5149	0.841377
 28.5189	0.841384
 28.5229	0.841392
 28.5269	0.841399
 28.5309	0.841407
 28.5349	0.841414
 28.5389	0.841422
 28.5429	0.841429
 28.5469	0.841437
 28.5509	0.841444
 28.5549	0.841452
 28.5589	0.84146
 28.5629	0.841467
 28.5669	0.841475
 28.5709	0.841482
 28.5749	0.84149
 28.5789	0.841497
 28.5829	0.841505
 28.5869	0.841512
 28.5909	0.84152
 28.5949	0.841527
 28.5989	0.841535
 28.6029	0.841542
 28.6069	0.84155
 28.6109	0.841557
 28.6149	0.841564
 28.6189	0.841572
 28.6229	0.841579
 28.6269	0.841587
 28.6309	0.841594
 28.6349	0.841602
 28.6389	0.841609
 28.6429	0.841617
 28.6469	0.841624
 28.6509	0.841632
 28.6549	0.841639
 28.6589	0.841647
 28.6629	0.841654
 28.6669	0.841661
 28.6709	0.841669
 28.6749	0.841676
 28.6789	0.841684
 28.6829	0.841691
 28.6869	0.841699
 28.6909	0.841706
 28.6949	0.841713
 28.6989	0.841721
 28.7029	0.841728
 28.7069	0.841736
 28.7109	0.841743
 28.7149	0.84175
 28.7189	0.841758
 28.7229	0.841765
 28.7269	0.841773
 28.7309	0.84178
 28.7349	0.841787
 28.7389	0.841795
 28.7429	0.841802
 28.7469	0.84181
 28.7509	0.841817
 28.7549	0.841824
 28.7589	0.841832
 28.7629	0.841839
 28.7669	0.841846
 28.7709	0.841854
 28.7749	0.841861
 28.7789	0.841869
 28.7829	0.841876
 28.7869	0.841883
 28.7909	0.841891
 28.7949	0.841898
 28.7989	0.841905
 28.8029	0.841913
 28.8069	0.84192
 28.8109	0.841927
 28.8149	0.841935
 28.8189	0.841942
 28.8229	0.841949
 28.8269	0.841957
 28.8309	0.841964
 28.8349	0.841971
 28.8389	0.841979
 28.8429	0.841986
 28.8469	0.841993
 28.8509	0.842001
 28.8549	0.842008
 28.8589	0.842015
 28.8629	0.842023
 28.8669	0.84203
 28.8709	0.842037
 28.8749	0.842044
 28.8789	0.842052
 28.8829	0.842059
 28.8869	0.842066
 28.8909	0.842074
 28.8949	0.842081
 28.8989	0.842088
 28.9029	0.842095
 28.9069	0.842103
 28.9109	0.84211
 28.9149	0.842117
 28.9189	0.842124
 28.9229	0.842132
 28.9269	0.842139
 28.9309	0.842146
 28.9349	0.842153
 28.9389	0.842161
 28.9429	0.842168
 28.9469	0.842175
 28.9509	0.842182
 28.9549	0.84219
 28.9589	0.842197
 28.9629	0.842204
 28.9669	0.842211
 28.9709	0.842219
 28.9749	0.842226
 28.9789	0.842233
 28.9829	0.84224
 28.9869	0.842247
 28.9909	0.842255
 28.9949	0.842262
 28.9989	0.842269
 29.0029	0.842276
 29.0069	0.842284
 29.0109	0.842291
 29.0149	0.842298
 29.0189	0.842305
 29.0229	0.842312
 29.0269	0.842319
 29.0309	0.842327
 29.0349	0.842334
 29.0389	0.842341
 29.0429	0.842348
 29.0469	0.842355
 29.0509	0.842363
 29.0549	0.84237
 29.0589	0.842377
 29.0629	0.842384
 29.0669	0.842391
 29.0709	0.842398
 29.0749	0.842406
 29.0789	0.842413
 29.0829	0.84242
 29.0869	0.842427
 29.0909	0.842434
 29.0949	0.842441
 29.0989	0.842448
 29.1029	0.842456
 29.1069	0.842463
 29.1109	0.84247
 29.1149	0.842477
 29.1189	0.842484
 29.1229	0.842491
 29.1269	0.842498
 29.1309	0.842505
 29.1349	0.842512
 29.1389	0.84252
 29.1429	0.842527
 29.1469	0.842534
 29.1509	0.842541
 29.1549	0.842548
 29.1589	0.842555
 29.1629	0.842562
 29.1669	0.842569
 29.1709	0.842576
 29.1749	0.842583
 29.1789	0.842591
 29.1829	0.842598
 29.1869	0.842605
 29.1909	0.842612
 29.1949	0.842619
 29.1989	0.842626
 29.2029	0.842633
 29.2069	0.84264
 29.2109	0.842647
 29.2149	0.842654
 29.2189	0.842661
 29.2229	0.842668
 29.2269	0.842675
 29.2309	0.842682
 29.2349	0.842689
 29.2389	0.842697
 29.2429	0.842704
 29.2469	0.842711
 29.2509	0.842718
 29.2549	0.842725
 29.2589	0.842732
 29.2629	0.842739
 29.2669	0.842746
 29.2709	0.842753
 29.2749	0.84276
 29.2789	0.842767
 29.2829	0.842774
 29.2869	0.842781
 29.2909	0.842788
 29.2949	0.842795
 29.2989	0.842802
 29.3029	0.842809
 29.3069	0.842816
 29.3109	0.842823
 29.3149	0.84283
 29.3189	0.842837
 29.3229	0.842844
 29.3269	0.842851
 29.3309	0.842858
 29.3349	0.842865
 29.3389	0.842872
 29.3429	0.842879
 29.3469	0.842886
 29.3509	0.842893
 29.3549	0.8429
 29.3589	0.842907
 29.3629	0.842914
 29.3669	0.84292
 29.3709	0.842927
 29.3749	0.842934
 29.3789	0.842941
 29.3829	0.842948
 29.3869	0.842955
 29.3909	0.842962
 29.3949	0.842969
 29.3989	0.842976
 29.4029	0.842983
 29.4069	0.84299
 29.4109	0.842997
 29.4149	0.843004
 29.4189	0.843011
 29.4229	0.843018
 29.4269	0.843025
 29.4309	0.843031
 29.4349	0.843038
 29.4389	0.843045
 29.4429	0.843052
 29.4469	0.843059
 29.4509	0.843066
 29.4549	0.843073
 29.4589	0.84308
 29.4629	0.843087
 29.4669	0.843094
 29.4709	0.8431
 29.4749	0.843107
 29.4789	0.843114
 29.4829	0.843121
 29.4869	0.843128
 29.4909	0.843135
 29.4949	0.843142
 29.4989	0.843149
 29.503	0.843155
 29.507	0.843162
 29.511	0.843169
 29.515	0.843176
 29.519	0.843183
 29.523	0.84319
 29.527	0.843197
 29.531	0.843203
 29.535	0.84321
 29.539	0.843217
 29.543	0.843224
 29.547	0.843231
 29.551	0.843238
 29.555	0.843245
 29.559	0.843251
 29.563	0.843258
 29.567	0.843265
 29.571	0.843272
 29.575	0.843279
 29.579	0.843285
 29.583	0.843292
 29.587	0.843299
 29.591	0.843306
 29.595	0.843313
 29.599	0.84332
 29.603	0.843326
 29.607	0.843333
 29.611	0.84334
 29.615	0.843347
 29.619	0.843354
 29.623	0.84336
 29.627	0.843367
 29.631	0.843374
 29.635	0.843381
 29.639	0.843387
 29.643	0.843394
 29.647	0.843401
 29.651	0.843408
 29.655	0.843415
 29.659	0.843421
 29.663	0.843428
 29.667	0.843435
 29.671	0.843442
 29.675	0.843448
 29.679	0.843455
 29.683	0.843462
 29.687	0.843469
 29.691	0.843475
 29.695	0.843482
 29.699	0.843489
 29.703	0.843496
 29.707	0.843502
 29.711	0.843509
 29.715	0.843516
 29.719	0.843522
 29.723	0.843529
 29.727	0.843536
 29.731	0.843543
 29.735	0.843549
 29.739	0.843556
 29.743	0.843563
 29.747	0.84357
 29.751	0.843576
 29.755	0.843583
 29.759	0.84359
 29.763	0.843596
 29.767	0.843603
 29.771	0.84361
 29.775	0.843616
 29.779	0.843623
 29.783	0.84363
 29.787	0.843636
 29.791	0.843643
 29.795	0.84365
 29.799	0.843657
 29.803	0.843663
 29.807	0.84367
 29.811	0.843677
 29.815	0.843683
 29.819	0.84369
 29.823	0.843697
 29.827	0.843703
 29.831	0.84371
 29.835	0.843716
 29.839	0.843723
 29.843	0.84373
 29.847	0.843736
 29.851	0.843743
 29.855	0.84375
 29.859	0.843756
 29.863	0.843763
 29.867	0.84377
 29.871	0.843776
 29.875	0.843783
 29.879	0.84379
 29.883	0.843796
 29.887	0.843803
 29.891	0.843809
 29.895	0.843816
 29.899	0.843823
 29.903	0.843829
 29.907	0.843836
 29.911	0.843842
 29.915	0.843849
 29.919	0.843856
 29.923	0.843862
 29.927	0.843869
 29.931	0.843875
 29.935	0.843882
 29.939	0.843889
 29.943	0.843895
 29.947	0.843902
 29.951	0.843908
 29.955	0.843915
 29.959	0.843922
 29.963	0.843928
 29.967	0.843935
 29.971	0.843941
 29.975	0.843948
 29.979	0.843954
 29.983	0.843961
 29.987	0.843968
 29.991	0.843974
 29.995	0.843981
 29.999	0.843987
 30.003	0.843994
 30.007	0.844
 30.011	0.844007
 30.015	0.844013
 30.019	0.84402
 30.023	0.844026
 30.027	0.844033
 30.031	0.844039
 30.035	0.844045
 30.039	0.844052
 30.043	0.844058
 30.047	0.844065
 30.051	0.844071
 30.055	0.844078
 30.059	0.844084
 30.063	0.844091
 30.067	0.844097
 30.071	0.844104
 30.075	0.84411
 30.079	0.844116
 30.083	0.844123
 30.087	0.844129
 30.091	0.844136
 30.095	0.844142
 30.099	0.844149
 30.103	0.844155
 30.107	0.844161
 30.111	0.844168
 30.115	0.844174
 30.119	0.844181
 30.123	0.844187
 30.127	0.844194
 30.131	0.8442
 30.135	0.844206
 30.139	0.844213
 30.143	0.844219
 30.147	0.844226
 30.151	0.844232
 30.155	0.844238
 30.159	0.844245
 30.163	0.844251
 30.167	0.844257
 30.171	0.844264
 30.175	0.84427
 30.179	0.844277
 30.183	0.844283
 30.187	0.844289
 30.191	0.844296
 30.195	0.844302
 30.199	0.844308
 30.203	0.844315
 30.207	0.844321
 30.211	0.844328
 30.215	0.844334
 30.219	0.84434
 30.223	0.844347
 30.227	0.844353
 30.231	0.844359
 30.235	0.844366
 30.239	0.844372
 30.243	0.844378
 30.247	0.844385
 30.251	0.844391
 30.255	0.844397
 30.259	0.844404
 30.263	0.84441
 30.267	0.844416
 30.271	0.844423
 30.275	0.844429
 30.279	0.844435
 30.283	0.844442
 30.287	0.844448
 30.291	0.844454
 30.295	0.844461
 30.299	0.844467
 30.303	0.844473
 30.307	0.844479
 30.311	0.844486
 30.315	0.844492
 30.319	0.844498
 30.323	0.844505
 30.327	0.844511
 30.331	0.844517
 30.335	0.844523
 30.339	0.84453
 30.343	0.844536
 30.347	0.844542
 30.351	0.844549
 30.355	0.844555
 30.359	0.844561
 30.363	0.844567
 30.367	0.844574
 30.371	0.84458
 30.375	0.844586
 30.379	0.844592
 30.383	0.844599
 30.387	0.844605
 30.391	0.844611
 30.395	0.844617
 30.399	0.844624
 30.403	0.84463
 30.407	0.844636
 30.411	0.844642
 30.415	0.844649
 30.419	0.844655
 30.423	0.844661
 30.427	0.844667
 30.431	0.844674
 30.435	0.84468
 30.439	0.844686
 30.443	0.844692
 30.447	0.844698
 30.451	0.844705
 30.455	0.844711
 30.459	0.844717
 30.463	0.844723
 30.467	0.84473
 30.471	0.844736
 30.475	0.844742
 30.479	0.844748
 30.483	0.844754
 30.487	0.84476
 30.491	0.844767
 30.495	0.844773
 30.499	0.844779
 30.5031	0.844785
 30.5071	0.844791
 30.5111	0.844798
 30.5151	0.844804
 30.5191	0.84481
 30.5231	0.844816
 30.5271	0.844822
 30.5311	0.844828
 30.5351	0.844835
 30.5391	0.844841
 30.5431	0.844847
 30.5471	0.844853
 30.5511	0.844859
 30.5551	0.844865
 30.5591	0.844872
 30.5631	0.844878
 30.5671	0.844884
 30.5711	0.84489
 30.5751	0.844896
 30.5791	0.844902
 30.5831	0.844908
 30.5871	0.844915
 30.5911	0.844921
 30.5951	0.844927
 30.5991	0.844933
 30.6031	0.844939
 30.6071	0.844945
 30.6111	0.844951
 30.6151	0.844957
 30.6191	0.844964
 30.6231	0.84497
 30.6271	0.844976
 30.6311	0.844982
 30.6351	0.844988
 30.6391	0.844994
 30.6431	0.845
 30.6471	0.845006
 30.6511	0.845012
 30.6551	0.845019
 30.6591	0.845025
 30.6631	0.845031
 30.6671	0.845037
 30.6711	0.845043
 30.6751	0.845049
 30.6791	0.845055
 30.6831	0.845061
 30.6871	0.845067
 30.6911	0.845073
 30.6951	0.845079
 30.6991	0.845085
 30.7031	0.845091
 30.7071	0.845098
 30.7111	0.845104
 30.7151	0.84511
 30.7191	0.845116
 30.7231	0.845122
 30.7271	0.845128
 30.7311	0.845134
 30.7351	0.84514
 30.7391	0.845146
 30.7431	0.845152
 30.7471	0.845158
 30.7511	0.845164
 30.7551	0.84517
 30.7591	0.845176
 30.7631	0.845182
 30.7671	0.845188
 30.7711	0.845194
 30.7751	0.8452
 30.7791	0.845206
 30.7831	0.845212
 30.7871	0.845218
 30.7911	0.845224
 30.7951	0.84523
 30.7991	0.845236
 30.8031	0.845242
 30.8071	0.845248
 30.8111	0.845254
 30.8151	0.84526
 30.8191	0.845266
 30.8231	0.845272
 30.8271	0.845278
 30.8311	0.845284
 30.8351	0.84529
 30.8391	0.845296
 30.8431	0.845302
 30.8471	0.845308
 30.8511	0.845314
 30.8551	0.84532
 30.8591	0.845326
 30.8631	0.845332
 30.8671	0.845338
 30.8711	0.845344
 30.8751	0.84535
 30.8791	0.845356
 30.8831	0.845362
 30.8871	0.845368
 30.8911	0.845374
 30.8951	0.84538
 30.8991	0.845386
 30.9031	0.845392
 30.9071	0.845398
 30.9111	0.845404
 30.9151	0.84541
 30.9191	0.845416
 30.9231	0.845422
 30.9271	0.845428
 30.9311	0.845434
 30.9351	0.845439
 30.9391	0.845445
 30.9431	0.845451
 30.9471	0.845457
 30.9511	0.845463
 30.9551	0.845469
 30.9591	0.845475
 30.9631	0.845481
 30.9671	0.845487
 30.9711	0.845493
 30.9751	0.845499
 30.9791	0.845505
 30.9831	0.845511
 30.9871	0.845516
 30.9911	0.845522
 30.9951	0.845528
 30.9991	0.845534
 31.0031	0.84554
 31.0071	0.845546
 31.0111	0.845552
 31.0151	0.845558
 31.0191	0.845564
 31.0231	0.845569
 31.0271	0.845575
 31.0311	0.845581
 31.0351	0.845587
 31.0391	0.845593
 31.0431	0.845599
 31.0471	0.845605
 31.0511	0.845611
 31.0551	0.845616
 31.0591	0.845622
 31.0631	0.845628
 31.0671	0.845634
 31.0711	0.84564
 31.0751	0.845646
 31.0791	0.845652
 31.0831	0.845658
 31.0871	0.845663
 31.0911	0.845669
 31.0951	0.845675
 31.0991	0.845681
 31.1031	0.845687
 31.1071	0.845693
 31.1111	0.845698
 31.1151	0.845704
 31.1191	0.84571
 31.1231	0.845716
 31.1271	0.845722
 31.1311	0.845728
 31.1351	0.845733
 31.1391	0.845739
 31.1431	0.845745
 31.1471	0.845751
 31.1511	0.845757
 31.1551	0.845762
 31.1591	0.845768
 31.1631	0.845774
 31.1671	0.84578
 31.1711	0.845786
 31.1751	0.845792
 31.1791	0.845797
 31.1831	0.845803
 31.1871	0.845809
 31.1911	0.845815
 31.1951	0.84582
 31.1991	0.845826
 31.2031	0.845832
 31.2071	0.845838
 31.2111	0.845844
 31.2151	0.845849
 31.2191	0.845855
 31.2231	0.845861
 31.2271	0.845867
 31.2311	0.845873
 31.2351	0.845878
 31.2391	0.845884
 31.2431	0.84589
 31.2471	0.845896
 31.2511	0.845901
 31.2551	0.845907
 31.2591	0.845913
 31.2631	0.845919
 31.2671	0.845924
 31.2711	0.84593
 31.2751	0.845936
 31.2791	0.845942
 31.2831	0.845947
 31.2871	0.845953
 31.2911	0.845959
 31.2951	0.845965
 31.2991	0.84597
 31.3031	0.845976
 31.3071	0.845982
 31.3111	0.845987
 31.3151	0.845993
 31.3191	0.845999
 31.3231	0.846005
 31.3271	0.84601
 31.3311	0.846016
 31.3351	0.846022
 31.3391	0.846028
 31.3431	0.846033
 31.3471	0.846039
 31.3511	0.846045
 31.3551	0.84605
 31.3591	0.846056
 31.3631	0.846062
 31.3671	0.846067
 31.3711	0.846073
 31.3751	0.846079
 31.3791	0.846085
 31.3831	0.84609
 31.3871	0.846096
 31.3911	0.846102
 31.3951	0.846107
 31.3991	0.846113
 31.4031	0.846119
 31.4071	0.846124
 31.4111	0.84613
 31.4151	0.846136
 31.4191	0.846141
 31.4231	0.846147
 31.4271	0.846153
 31.4311	0.846158
 31.4351	0.846164
 31.4391	0.84617
 31.4431	0.846175
 31.4471	0.846181
 31.4511	0.846187
 31.4551	0.846192
 31.4591	0.846198
 31.4631	0.846204
 31.4671	0.846209
 31.4711	0.846215
 31.4751	0.84622
 31.4791	0.846226
 31.4831	0.846232
 31.4871	0.846237
 31.4911	0.846243
 31.4951	0.846249
 31.4991	0.846254
 31.5032	0.84626
 31.5072	0.846266
 31.5112	0.846271
 31.5152	0.846277
 31.5192	0.846282
 31.5232	0.846288
 31.5272	0.846294
 31.5312	0.846299
 31.5352	0.846305
 31.5392	0.84631
 31.5432	0.846316
 31.5472	0.846322
 31.5512	0.846327
 31.5552	0.846333
 31.5592	0.846338
 31.5632	0.846344
 31.5672	0.84635
 31.5712	0.846355
 31.5752	0.846361
 31.5792	0.846366
 31.5832	0.846372
 31.5872	0.846378
 31.5912	0.846383
 31.5952	0.846389
 31.5992	0.846394
 31.6032	0.8464
 31.6072	0.846405
 31.6112	0.846411
 31.6152	0.846417
 31.6192	0.846422
 31.6232	0.846428
 31.6272	0.846433
 31.6312	0.846439
 31.6352	0.846444
 31.6392	0.84645
 31.6432	0.846455
 31.6472	0.846461
 31.6512	0.846467
 31.6552	0.846472
 31.6592	0.846478
 31.6632	0.846483
 31.6672	0.846489
 31.6712	0.846494
 31.6752	0.8465
 31.6792	0.846505
 31.6832	0.846511
 31.6872	0.846516
 31.6912	0.846522
 31.6952	0.846527
 31.6992	0.846533
 31.7032	0.846539
 31.7072	0.846544
 31.7112	0.84655
 31.7152	0.846555
 31.7192	0.846561
 31.7232	0.846566
 31.7272	0.846572
 31.7312	0.846577
 31.7352	0.846583
 31.7392	0.846588
 31.7432	0.846594
 31.7472	0.846599
 31.7512	0.846605
 31.7552	0.84661
 31.7592	0.846616
 31.7632	0.846621
 31.7672	0.846627
 31.7712	0.846632
 31.7752	0.846638
 31.7792	0.846643
 31.7832	0.846648
 31.7872	0.846654
 31.7912	0.846659
 31.7952	0.846665
 31.7992	0.84667
 31.8032	0.846676
 31.8072	0.846681
 31.8112	0.846687
 31.8152	0.846692
 31.8192	0.846698
 31.8232	0.846703
 31.8272	0.846709
 31.8312	0.846714
 31.8352	0.84672
 31.8392	0.846725
 31.8432	0.84673
 31.8472	0.846736
 31.8512	0.846741
 31.8552	0.846747
 31.8592	0.846752
 31.8632	0.846758
 31.8672	0.846763
 31.8712	0.846769
 31.8752	0.846774
 31.8792	0.846779
 31.8832	0.846785
 31.8872	0.84679
 31.8912	0.846796
 31.8952	0.846801
 31.8992	0.846806
 31.9032	0.846812
 31.9072	0.846817
 31.9112	0.846823
 31.9152	0.846828
 31.9192	0.846834
 31.9232	0.846839
 31.9272	0.846844
 31.9312	0.84685
 31.9352	0.846855
 31.9392	0.846861
 31.9432	0.846866
 31.9472	0.846871
 31.9512	0.846877
 31.9552	0.846882
 31.9592	0.846888
 31.9632	0.846893
 31.9672	0.846898
 31.9712	0.846904
 31.9752	0.846909
 31.9792	0.846914
 31.9832	0.84692
 31.9872	0.846925
 31.9912	0.846931
 31.9952	0.846936
 31.9992	0.846941
 32.0032	0.846947
 32.0072	0.846952
 32.0112	0.846957
 32.0152	0.846963
 32.0192	0.846968
 32.0232	0.846974
 32.0272	0.846979
 32.0312	0.846984
 32.0352	0.84699
 32.0392	0.846995
 32.0432	0.847
 32.0472	0.847006
 32.0512	0.847011
 32.0552	0.847016
 32.0592	0.847022
 32.0632	0.847027
 32.0672	0.847032
 32.0712	0.847038
 32.0752	0.847043
 32.0792	0.847048
 32.0832	0.847054
 32.0872	0.847059
 32.0912	0.847064
 32.0952	0.84707
 32.0992	0.847075
 32.1032	0.84708
 32.1072	0.847086
 32.1112	0.847091
 32.1152	0.847096
 32.1192	0.847101
 32.1232	0.847107
 32.1272	0.847112
 32.1312	0.847117
 32.1352	0.847123
 32.1392	0.847128
 32.1432	0.847133
 32.1472	0.847139
 32.1512	0.847144
 32.1552	0.847149
 32.1592	0.847154
 32.1632	0.84716
 32.1672	0.847165
 32.1712	0.84717
 32.1752	0.847176
 32.1792	0.847181
 32.1832	0.847186
 32.1872	0.847191
 32.1912	0.847197
 32.1952	0.847202
 32.1992	0.847207
 32.2032	0.847213
 32.2072	0.847218
 32.2112	0.847223
 32.2152	0.847228
 32.2192	0.847234
 32.2232	0.847239
 32.2272	0.847244
 32.2312	0.847249
 32.2352	0.847255
 32.2392	0.84726
 32.2432	0.847265
 32.2472	0.84727
 32.2512	0.847276
 32.2552	0.847281
 32.2592	0.847286
 32.2632	0.847291
 32.2672	0.847297
 32.2712	0.847302
 32.2752	0.847307
 32.2792	0.847312
 32.2832	0.847317
 32.2872	0.847323
 32.2912	0.847328
 32.2952	0.847333
 32.2992	0.847338
 32.3032	0.847344
 32.3072	0.847349
 32.3112	0.847354
 32.3152	0.847359
 32.3192	0.847364
 32.3232	0.84737
 32.3272	0.847375
 32.3312	0.84738
 32.3352	0.847385
 32.3392	0.84739
 32.3432	0.847396
 32.3472	0.847401
 32.3512	0.847406
 32.3552	0.847411
 32.3592	0.847416
 32.3632	0.847422
 32.3672	0.847427
 32.3712	0.847432
 32.3752	0.847437
 32.3792	0.847442
 32.3832	0.847448
 32.3872	0.847453
 32.3912	0.847458
 32.3952	0.847463
 32.3992	0.847468
 32.4032	0.847473
 32.4072	0.847479
 32.4112	0.847484
 32.4152	0.847489
 32.4192	0.847494
 32.4232	0.847499
 32.4272	0.847504
 32.4312	0.84751
 32.4352	0.847515
 32.4392	0.84752
 32.4432	0.847525
 32.4472	0.84753
 32.4512	0.847535
 32.4552	0.84754
 32.4592	0.847546
 32.4632	0.847551
 32.4672	0.847556
 32.4712	0.847561
 32.4752	0.847566
 32.4792	0.847571
 32.4832	0.847576
 32.4872	0.847582
 32.4912	0.847587
 32.4952	0.847592
 32.4992	0.847597
 32.5033	0.847602
 32.5073	0.847607
 32.5113	0.847612
 32.5153	0.847617
 32.5193	0.847623
 32.5233	0.847628
 32.5273	0.847633
 32.5313	0.847638
 32.5353	0.847643
 32.5393	0.847648
 32.5433	0.847653
 32.5473	0.847658
 32.5513	0.847663
 32.5553	0.847669
 32.5593	0.847674
 32.5633	0.847679
 32.5673	0.847684
 32.5713	0.847689
 32.5753	0.847694
 32.5793	0.847699
 32.5833	0.847704
 32.5873	0.847709
 32.5913	0.847714
 32.5953	0.847719
 32.5993	0.847724
 32.6033	0.84773
 32.6073	0.847735
 32.6113	0.84774
 32.6153	0.847745
 32.6193	0.84775
 32.6233	0.847755
 32.6273	0.84776
 32.6313	0.847765
 32.6353	0.84777
 32.6393	0.847775
 32.6433	0.84778
 32.6473	0.847785
 32.6513	0.84779
 32.6553	0.847795
 32.6593	0.8478
 32.6633	0.847805
 32.6673	0.84781
 32.6713	0.847816
 32.6753	0.847821
 32.6793	0.847826
 32.6833	0.847831
 32.6873	0.847836
 32.6913	0.847841
 32.6953	0.847846
 32.6993	0.847851
 32.7033	0.847856
 32.7073	0.847861
 32.7113	0.847866
 32.7153	0.847871
 32.7193	0.847876
 32.7233	0.847881
 32.7273	0.847886
 32.7313	0.847891
 32.7353	0.847896
 32.7393	0.847901
 32.7433	0.847906
 32.7473	0.847911
 32.7513	0.847916
 32.7553	0.847921
 32.7593	0.847926
 32.7633	0.847931
 32.7673	0.847936
 32.7713	0.847941
 32.7753	0.847946
 32.7793	0.847951
 32.7833	0.847956
 32.7873	0.847961
 32.7913	0.847966
 32.7953	0.847971
 32.7993	0.847976
 32.8033	0.847981
 32.8073	0.847986
 32.8113	0.847991
 32.8153	0.847996
 32.8193	0.848001
 32.8233	0.848006
 32.8273	0.848011
 32.8313	0.848016
 32.8353	0.848021
 32.8393	0.848026
 32.8433	0.848031
 32.8473	0.848036
 32.8513	0.848041
 32.8553	0.848046
 32.8593	0.84805
 32.8633	0.848055
 32.8673	0.84806
 32.8713	0.848065
 32.8753	0.84807
 32.8793	0.848075
 32.8833	0.84808
 32.8873	0.848085
 32.8913	0.84809
 32.8953	0.848095
 32.8993	0.8481
 32.9033	0.848105
 32.9073	0.84811
 32.9113	0.848115
 32.9153	0.84812
 32.9193	0.848125
 32.9233	0.84813
 32.9273	0.848134
 32.9313	0.848139
 32.9353	0.848144
 32.9393	0.848149
 32.9433	0.848154
 32.9473	0.848159
 32.9513	0.848164
 32.9553	0.848169
 32.9593	0.848174
 32.9633	0.848179
 32.9673	0.848184
 32.9713	0.848188
 32.9753	0.848193
 32.9793	0.848198
 32.9833	0.848203
 32.9873	0.848208
 32.9913	0.848213
 32.9953	0.848218
 32.9993	0.848223
 33.0033	0.848228
 33.0073	0.848233
 33.0113	0.848237
 33.0153	0.848242
 33.0193	0.848247
 33.0233	0.848252
 33.0273	0.848257
 33.0313	0.848262
 33.0353	0.848267
 33.0393	0.848272
 33.0433	0.848276
 33.0473	0.848281
 33.0513	0.848286
 33.0553	0.848291
 33.0593	0.848296
 33.0633	0.848301
 33.0673	0.848306
 33.0713	0.848311
 33.0753	0.848315
 33.0793	0.84832
 33.0833	0.848325
 33.0873	0.84833
 33.0913	0.848335
 33.0953	0.84834
 33.0993	0.848344
 33.1033	0.848349
 33.1073	0.848354
 33.1113	0.848359
 33.1153	0.848364
 33.1193	0.848369
 33.1233	0.848374
 33.1273	0.848378
 33.1313	0.848383
 33.1353	0.848388
 33.1393	0.848393
 33.1433	0.848398
 33.1473	0.848403
 33.1513	0.848407
 33.1553	0.848412
 33.1593	0.848417
 33.1633	0.848422
 33.1673	0.848427
 33.1713	0.848431
 33.1753	0.848436
 33.1793	0.848441
 33.1833	0.848446
 33.1873	0.848451
 33.1913	0.848455
 33.1953	0.84846
 33.1993	0.848465
 33.2033	0.84847
 33.2073	0.848475
 33.2113	0.848479
 33.2153	0.848484
 33.2193	0.848489
 33.2233	0.848494
 33.2273	0.848499
 33.2313	0.848503
 33.2353	0.848508
 33.2393	0.848513
 33.2433	0.848518
 33.2473	0.848523
 33.2513	0.848527
 33.2553	0.848532
 33.2593	0.848537
 33.2633	0.848542
 33.2673	0.848546
 33.2713	0.848551
 33.2753	0.848556
 33.2793	0.848561
 33.2833	0.848566
 33.2873	0.84857
 33.2913	0.848575
 33.2953	0.84858
 33.2993	0.848585
 33.3033	0.848589
 33.3073	0.848594
 33.3113	0.848599
 33.3153	0.848604
 33.3193	0.848608
 33.3233	0.848613
 33.3273	0.848618
 33.3313	0.848623
 33.3353	0.848627
 33.3393	0.848632
 33.3433	0.848637
 33.3473	0.848642
 33.3513	0.848646
 33.3553	0.848651
 33.3593	0.848656
 33.3633	0.84866
 33.3673	0.848665
 33.3713	0.84867
 33.3753	0.848675
 33.3793	0.848679
 33.3833	0.848684
 33.3873	0.848689
 33.3913	0.848694
 33.3953	0.848698
 33.3993	0.848703
 33.4033	0.848708
 33.4073	0.848712
 33.4113	0.848717
 33.4153	0.848722
 33.4193	0.848727
 33.4233	0.848731
 33.4273	0.848736
 33.4313	0.848741
 33.4353	0.848745
 33.4393	0.84875
 33.4433	0.848755
 33.4473	0.848759
 33.4513	0.848764
 33.4553	0.848769
 33.4593	0.848773
 33.4633	0.848778
 33.4673	0.848783
 33.4713	0.848788
 33.4753	0.848792
 33.4793	0.848797
 33.4833	0.848802
 33.4873	0.848806
 33.4913	0.848811
 33.4953	0.848816
 33.4993	0.84882
 33.5034	0.848825
 33.5074	0.84883
 33.5114	0.848834
 33.5154	0.848839
 33.5194	0.848844
 33.5234	0.848848
 33.5274	0.848853
 33.5314	0.848858
 33.5354	0.848862
 33.5394	0.848867
 33.5434	0.848872
 33.5474	0.848876
 33.5514	0.848881
 33.5554	0.848886
 33.5594	0.84889
 33.5634	0.848895
 33.5674	0.848899
 33.5714	0.848904
 33.5754	0.848909
 33.5794	0.848913
 33.5834	0.848918
 33.5874	0.848923
 33.5914	0.848927
 33.5954	0.848932
 33.5994	0.848937
 33.6034	0.848941
 33.6074	0.848946
 33.6114	0.84895
 33.6154	0.848955
 33.6194	0.84896
 33.6234	0.848964
 33.6274	0.848969
 33.6314	0.848973
 33.6354	0.848978
 33.6394	0.848983
 33.6434	0.848987
 33.6474	0.848992
 33.6514	0.848997
 33.6554	0.849001
 33.6594	0.849006
 33.6634	0.84901
 33.6674	0.849015
 33.6714	0.84902
 33.6754	0.849024
 33.6794	0.849029
 33.6834	0.849033
 33.6874	0.849038
 33.6914	0.849043
 33.6954	0.849047
 33.6994	0.849052
 33.7034	0.849056
 33.7074	0.849061
 33.7114	0.849065
 33.7154	0.84907
 33.7194	0.849075
 33.7234	0.849079
 33.7274	0.849084
 33.7314	0.849088
 33.7354	0.849093
 33.7394	0.849097
 33.7434	0.849102
 33.7474	0.849107
 33.7514	0.849111
 33.7554	0.849116
 33.7594	0.84912
 33.7634	0.849125
 33.7674	0.849129
 33.7714	0.849134
 33.7754	0.849139
 33.7794	0.849143
 33.7834	0.849148
 33.7874	0.849152
 33.7914	0.849157
 33.7954	0.849161
 33.7994	0.849166
 33.8034	0.84917
 33.8074	0.849175
 33.8114	0.849179
 33.8154	0.849184
 33.8194	0.849189
 33.8234	0.849193
 33.8274	0.849198
 33.8314	0.849202
 33.8354	0.849207
 33.8394	0.849211
 33.8434	0.849216
 33.8474	0.84922
 33.8514	0.849225
 33.8554	0.849229
 33.8594	0.849234
 33.8634	0.849238
 33.8674	0.849243
 33.8714	0.849247
 33.8754	0.849252
 33.8794	0.849256
 33.8834	0.849261
 33.8874	0.849265
 33.8914	0.84927
 33.8954	0.849274
 33.8994	0.849279
 33.9034	0.849283
 33.9074	0.849288
 33.9114	0.849292
 33.9154	0.849297
 33.9194	0.849301
 33.9234	0.849306
 33.9274	0.84931
 33.9314	0.849315
 33.9354	0.849319
 33.9394	0.849324
 33.9434	0.849328
 33.9474	0.849333
 33.9514	0.849337
 33.9554	0.849342
 33.9594	0.849346
 33.9634	0.849351
 33.9674	0.849355
 33.9714	0.84936
 33.9754	0.849364
 33.9794	0.849369
 33.9834	0.849373
 33.9874	0.849378
 33.9914	0.849382
 33.9954	0.849386
 33.9994	0.849391
 34.0034	0.849395
 34.0074	0.8494
 34.0114	0.849404
 34.0154	0.849409
 34.0194	0.849413
 34.0234	0.849418
 34.0274	0.849422
 34.0314	0.849427
 34.0354	0.849431
 34.0394	0.849435
 34.0434	0.84944
 34.0474	0.849444
 34.0514	0.849449
 34.0554	0.849453
 34.0594	0.849458
 34.0634	0.849462
 34.0674	0.849467
 34.0714	0.849471
 34.0754	0.849475
 34.0794	0.84948
 34.0834	0.849484
 34.0874	0.849489
 34.0914	0.849493
 34.0954	0.849498
 34.0994	0.849502
 34.1034	0.849506
 34.1074	0.849511
 34.1114	0.849515
 34.1154	0.84952
 34.1194	0.849524
 34.1234	0.849528
 34.1274	0.849533
 34.1314	0.849537
 34.1354	0.849542
 34.1394	0.849546
 34.1434	0.84955
 34.1474	0.849555
 34.1514	0.849559
 34.1554	0.849564
 34.1594	0.849568
 34.1634	0.849572
 34.1674	0.849577
 34.1714	0.849581
 34.1754	0.849586
 34.1794	0.84959
 34.1834	0.849594
 34.1874	0.849599
 34.1914	0.849603
 34.1954	0.849608
 34.1994	0.849612
 34.2034	0.849616
 34.2074	0.849621
 34.2114	0.849625
 34.2154	0.849629
 34.2194	0.849634
 34.2234	0.849638
 34.2274	0.849643
 34.2314	0.849647
 34.2354	0.849651
 34.2394	0.849656
 34.2434	0.84966
 34.2474	0.849664
 34.2514	0.849669
 34.2554	0.849673
 34.2594	0.849677
 34.2634	0.849682
 34.2674	0.849686
 34.2714	0.849691
 34.2754	0.849695
 34.2794	0.849699
 34.2834	0.849704
 34.2874	0.849708
 34.2914	0.849712
 34.2954	0.849717
 34.2994	0.849721
 34.3034	0.849725
 34.3074	0.84973
 34.3114	0.849734
 34.3154	0.849738
 34.3194	0.849743
 34.3234	0.849747
 34.3274	0.849751
 34.3314	0.849756
 34.3354	0.84976
 34.3394	0.849764
 34.3434	0.849769
 34.3474	0.849773
 34.3514	0.849777
 34.3554	0.849782
 34.3594	0.849786
 34.3634	0.84979
 34.3674	0.849795
 34.3714	0.849799
 34.3754	0.849803
 34.3794	0.849807
 34.3834	0.849812
 34.3874	0.849816
 34.3914	0.84982
 34.3954	0.849825
 34.3994	0.849829
 34.4034	0.849833
 34.4074	0.849838
 34.4114	0.849842
 34.4154	0.849846
 34.4194	0.849851
 34.4234	0.849855
 34.4274	0.849859
 34.4314	0.849863
 34.4354	0.849868
 34.4394	0.849872
 34.4434	0.849876
 34.4474	0.849881
 34.4514	0.849885
 34.4554	0.849889
 34.4594	0.849893
 34.4634	0.849898
 34.4674	0.849902
 34.4714	0.849906
 34.4754	0.84991
 34.4794	0.849915
 34.4834	0.849919
 34.4874	0.849923
 34.4914	0.849928
 34.4954	0.849932
 34.4994	0.849936
 34.5035	0.84994
 34.5075	0.849945
 34.5115	0.849949
 34.5155	0.849953
 34.5195	0.849957
 34.5235	0.849962
 34.5275	0.849966
 34.5315	0.84997
 34.5355	0.849974
 34.5395	0.849979
 34.5435	0.849983
 34.5475	0.849987
 34.5515	0.849991
 34.5555	0.849996
 34.5595	0.85
 34.5635	0.850004
 34.5675	0.850008
 34.5715	0.850013
 34.5755	0.850017
 34.5795	0.850021
 34.5835	0.850025
 34.5875	0.850029
 34.5915	0.850034
 34.5955	0.850038
 34.5995	0.850042
 34.6035	0.850046
 34.6075	0.850051
 34.6115	0.850055
 34.6155	0.850059
 34.6195	0.850063
 34.6235	0.850067
 34.6275	0.850072
 34.6315	0.850076
 34.6355	0.85008
 34.6395	0.850084
 34.6435	0.850089
 34.6475	0.850093
 34.6515	0.850097
 34.6555	0.850101
 34.6595	0.850105
 34.6635	0.85011
 34.6675	0.850114
 34.6715	0.850118
 34.6755	0.850122
 34.6795	0.850126
 34.6835	0.850131
 34.6875	0.850135
 34.6915	0.850139
 34.6955	0.850143
 34.6995	0.850147
 34.7035	0.850151
 34.7075	0.850156
 34.7115	0.85016
 34.7155	0.850164
 34.7195	0.850168
 34.7235	0.850172
 34.7275	0.850177
 34.7315	0.850181
 34.7355	0.850185
 34.7395	0.850189
 34.7435	0.850193
 34.7475	0.850197
 34.7515	0.850202
 34.7555	0.850206
 34.7595	0.85021
 34.7635	0.850214
 34.7675	0.850218
 34.7715	0.850222
 34.7755	0.850227
 34.7795	0.850231
 34.7835	0.850235
 34.7875	0.850239
 34.7915	0.850243
 34.7955	0.850247
 34.7995	0.850251
 34.8035	0.850256
 34.8075	0.85026
 34.8115	0.850264
 34.8155	0.850268
 34.8195	0.850272
 34.8235	0.850276
 34.8275	0.85028
 34.8315	0.850285
 34.8355	0.850289
 34.8395	0.850293
 34.8435	0.850297
 34.8475	0.850301
 34.8515	0.850305
 34.8555	0.850309
 34.8595	0.850313
 34.8635	0.850318
 34.8675	0.850322
 34.8715	0.850326
 34.8755	0.85033
 34.8795	0.850334
 34.8835	0.850338
 34.8875	0.850342
 34.8915	0.850346
 34.8955	0.850351
 34.8995	0.850355
 34.9035	0.850359
 34.9075	0.850363
 34.9115	0.850367
 34.9155	0.850371
 34.9195	0.850375
 34.9235	0.850379
 34.9275	0.850383
 34.9315	0.850388
 34.9355	0.850392
 34.9395	0.850396
 34.9435	0.8504
 34.9475	0.850404
 34.9515	0.850408
 34.9555	0.850412
 34.9595	0.850416
 34.9635	0.85042
 34.9675	0.850424
 34.9715	0.850428
 34.9755	0.850433
 34.9795	0.850437
 34.9835	0.850441
 34.9875	0.850445
 34.9915	0.850449
 34.9955	0.850453
 34.9995	0.850457
 35.0035	0.850461
 35.0075	0.850465
 35.0115	0.850469
 35.0155	0.850473
 35.0195	0.850477
 35.0235	0.850481
 35.0275	0.850485
 35.0315	0.850489
 35.0355	0.850493
 35.0395	0.850497
 35.0435	0.850502
 35.0475	0.850506
 35.0515	0.85051
 35.0555	0.850514
 35.0595	0.850518
 35.0635	0.850522
 35.0675	0.850526
 35.0715	0.85053
 35.0755	0.850534
 35.0795	0.850538
 35.0835	0.850542
 35.0875	0.850546
 35.0915	0.85055
 35.0955	0.850554
 35.0995	0.850558
 35.1035	0.850562
 35.1075	0.850566
 35.1115	0.85057
 35.1155	0.850574
 35.1195	0.850578
 35.1235	0.850582
 35.1275	0.850586
 35.1315	0.85059
 35.1355	0.850594
 35.1395	0.850598
 35.1435	0.850602
 35.1475	0.850606
 35.1515	0.85061
 35.1555	0.850614
 35.1595	0.850618
 35.1635	0.850622
 35.1675	0.850626
 35.1715	0.85063
 35.1755	0.850634
 35.1795	0.850638
 35.1835	0.850642
 35.1875	0.850646
 35.1915	0.85065
 35.1955	0.850654
 35.1995	0.850658
 35.2035	0.850662
 35.2075	0.850666
 35.2115	0.85067
 35.2155	0.850674
 35.2195	0.850678
 35.2235	0.850682
 35.2275	0.850686
 35.2315	0.85069
 35.2355	0.850694
 35.2395	0.850698
 35.2435	0.850702
 35.2475	0.850706
 35.2515	0.85071
 35.2555	0.850714
 35.2595	0.850718
 35.2635	0.850722
 35.2675	0.850726
 35.2715	0.85073
 35.2755	0.850734
 35.2795	0.850737
 35.2835	0.850741
 35.2875	0.850745
 35.2915	0.850749
 35.2955	0.850753
 35.2995	0.850757
 35.3035	0.850761
 35.3075	0.850765
 35.3115	0.850769
 35.3155	0.850773
 35.3195	0.850777
 35.3235	0.850781
 35.3275	0.850785
 35.3315	0.850789
 35.3355	0.850793
 35.3395	0.850797
 35.3435	0.850801
 35.3475	0.850805
 35.3515	0.850808
 35.3555	0.850812
 35.3595	0.850816
 35.3635	0.85082
 35.3675	0.850824
 35.3715	0.850828
 35.3755	0.850832
 35.3795	0.850836
 35.3835	0.85084
 35.3875	0.850844
 35.3915	0.850848
 35.3955	0.850852
 35.3995	0.850856
 35.4035	0.850859
 35.4075	0.850863
 35.4115	0.850867
 35.4155	0.850871
 35.4195	0.850875
 35.4235	0.850879
 35.4275	0.850883
 35.4315	0.850887
 35.4355	0.850891
 35.4395	0.850895
 35.4435	0.850898
 35.4475	0.850902
 35.4515	0.850906
 35.4555	0.85091
 35.4595	0.850914
 35.4635	0.850918
 35.4675	0.850922
 35.4715	0.850926
 35.4755	0.85093
 35.4795	0.850933
 35.4835	0.850937
 35.4875	0.850941
 35.4915	0.850945
 35.4955	0.850949
 35.4995	0.850953
 35.5036	0.850957
 35.5076	0.850961
 35.5116	0.850965
 35.5156	0.850968
 35.5196	0.850972
 35.5236	0.850976
 35.5276	0.85098
 35.5316	0.850984
 35.5356	0.850988
 35.5396	0.850992
 35.5436	0.850995
 35.5476	0.850999
 35.5516	0.851003
 35.5556	0.851007
 35.5596	0.851011
 35.5636	0.851015
 35.5676	0.851019
 35.5716	0.851022
 35.5756	0.851026
 35.5796	0.85103
 35.5836	0.851034
 35.5876	0.851038
 35.5916	0.851042
 35.5956	0.851046
 35.5996	0.851049
 35.6036	0.851053
 35.6076	0.851057
 35.6116	0.851061
 35.6156	0.851065
 35.6196	0.851069
 35.6236	0.851072
 35.6276	0.851076
 35.6316	0.85108
 35.6356	0.851084
 35.6396	0.851088
 35.6436	0.851092
 35.6476	0.851095
 35.6516	0.851099
 35.6556	0.851103
 35.6596	0.851107
 35.6636	0.851111
 35.6676	0.851115
 35.6716	0.851118
 35.6756	0.851122
 35.6796	0.851126
 35.6836	0.85113
 35.6876	0.851134
 35.6916	0.851137
 35.6956	0.851141
 35.6996	0.851145
 35.7036	0.851149
 35.7076	0.851153
 35.7116	0.851157
 35.7156	0.85116
 35.7196	0.851164
 35.7236	0.851168
 35.7276	0.851172
 35.7316	0.851176
 35.7356	0.851179
 35.7396	0.851183
 35.7436	0.851187
 35.7476	0.851191
 35.7516	0.851194
 35.7556	0.851198
 35.7596	0.851202
 35.7636	0.851206
 35.7676	0.85121
 35.7716	0.851213
 35.7756	0.851217
 35.7796	0.851221
 35.7836	0.851225
 35.7876	0.851229
 35.7916	0.851232
 35.7956	0.851236
 35.7996	0.85124
 35.8036	0.851244
 35.8076	0.851247
 35.8116	0.851251
 35.8156	0.851255
 35.8196	0.851259
 35.8236	0.851263
 35.8276	0.851266
 35.8316	0.85127
 35.8356	0.851274
 35.8396	0.851278
 35.8436	0.851281
 35.8476	0.851285
 35.8516	0.851289
 35.8556	0.851293
 35.8596	0.851296
 35.8636	0.8513
 35.8676	0.851304
 35.8716	0.851308
 35.8756	0.851311
 35.8796	0.851315
 35.8836	0.851319
 35.8876	0.851323
 35.8916	0.851326
 35.8956	0.85133
 35.8996	0.851334
 35.9036	0.851338
 35.9076	0.851341
 35.9116	0.851345
 35.9156	0.851349
 35.9196	0.851353
 35.9236	0.851356
 35.9276	0.85136
 35.9316	0.851364
 35.9356	0.851367
 35.9396	0.851371
 35.9436	0.851375
 35.9476	0.851379
 35.9516	0.851382
 35.9556	0.851386
 35.9596	0.85139
 35.9636	0.851394
 35.9676	0.851397
 35.9716	0.851401
 35.9756	0.851405
 35.9796	0.851408
 35.9836	0.851412
 35.9876	0.851416
 35.9916	0.85142
 35.9956	0.851423
 35.9996	0.851427
 36.0036	0.851431
 36.0076	0.851434
 36.0116	0.851438
 36.0156	0.851442
 36.0196	0.851445
 36.0236	0.851449
 36.0276	0.851453
 36.0316	0.851457
 36.0356	0.85146
 36.0396	0.851464
 36.0436	0.851468
 36.0476	0.851471
 36.0516	0.851475
 36.0556	0.851479
 36.0596	0.851482
 36.0636	0.851486
 36.0676	0.85149
 36.0716	0.851494
 36.0756	0.851497
 36.0796	0.851501
 36.0836	0.851505
 36.0876	0.851508
 36.0916	0.851512
 36.0956	0.851516
 36.0996	0.851519
 36.1036	0.851523
 36.1076	0.851527
 36.1116	0.85153
 36.1156	0.851534
 36.1196	0.851538
 36.1236	0.851541
 36.1276	0.851545
 36.1316	0.851549
 36.1356	0.851552
 36.1396	0.851556
 36.1436	0.85156
 36.1476	0.851563
 36.1516	0.851567
 36.1556	0.851571
 36.1596	0.851574
 36.1636	0.851578
 36.1676	0.851582
 36.1716	0.851585
 36.1756	0.851589
 36.1796	0.851593
 36.1836	0.851596
 36.1876	0.8516
 36.1916	0.851603
 36.1956	0.851607
 36.1996	0.851611
 36.2036	0.851614
 36.2076	0.851618
 36.2116	0.851622
 36.2156	0.851625
 36.2196	0.851629
 36.2236	0.851633
 36.2276	0.851636
 36.2316	0.85164
 36.2356	0.851643
 36.2396	0.851647
 36.2436	0.851651
 36.2476	0.851654
 36.2516	0.851658
 36.2556	0.851662
 36.2596	0.851665
 36.2636	0.851669
 36.2676	0.851672
 36.2716	0.851676
 36.2756	0.85168
 36.2796	0.851683
 36.2836	0.851687
 36.2876	0.851691
 36.2916	0.851694
 36.2956	0.851698
 36.2996	0.851701
 36.3036	0.851705
 36.3076	0.851709
 36.3116	0.851712
 36.3156	0.851716
 36.3196	0.851719
 36.3236	0.851723
 36.3276	0.851727
 36.3316	0.85173
 36.3356	0.851734
 36.3396	0.851737
 36.3436	0.851741
 36.3476	0.851745
 36.3516	0.851748
 36.3556	0.851752
 36.3596	0.851755
 36.3636	0.851759
 36.3676	0.851763
 36.3716	0.851766
 36.3756	0.85177
 36.3796	0.851773
 36.3836	0.851777
 36.3876	0.85178
 36.3916	0.851784
 36.3956	0.851788
 36.3996	0.851791
 36.4036	0.851795
 36.4076	0.851798
 36.4116	0.851802
 36.4156	0.851806
 36.4196	0.851809
 36.4236	0.851813
 36.4276	0.851816
 36.4316	0.85182
 36.4356	0.851823
 36.4396	0.851827
 36.4436	0.851831
 36.4476	0.851834
 36.4516	0.851838
 36.4556	0.851841
 36.4596	0.851845
 36.4636	0.851848
 36.4676	0.851852
 36.4716	0.851855
 36.4756	0.851859
 36.4796	0.851863
 36.4836	0.851866
 36.4876	0.85187
 36.4916	0.851873
 36.4956	0.851877
 36.4996	0.85188
 36.5037	0.851884
 36.5077	0.851887
 36.5117	0.851891
 36.5157	0.851894
 36.5197	0.851898
 36.5237	0.851902
 36.5277	0.851905
 36.5317	0.851909
 36.5357	0.851912
 36.5397	0.851916
 36.5437	0.851919
 36.5477	0.851923
 36.5517	0.851926
 36.5557	0.85193
 36.5597	0.851933
 36.5637	0.851937
 36.5677	0.85194
 36.5717	0.851944
 36.5757	0.851947
 36.5797	0.851951
 36.5837	0.851954
 36.5877	0.851958
 36.5917	0.851962
 36.5957	0.851965
 36.5997	0.851969
 36.6037	0.851972
 36.6077	0.851976
 36.6117	0.851979
 36.6157	0.851983
 36.6197	0.851986
 36.6237	0.85199
 36.6277	0.851993
 36.6317	0.851997
 36.6357	0.852
 36.6397	0.852004
 36.6437	0.852007
 36.6477	0.852011
 36.6517	0.852014
 36.6557	0.852018
 36.6597	0.852021
 36.6637	0.852025
 36.6677	0.852028
 36.6717	0.852032
 36.6757	0.852035
 36.6797	0.852039
 36.6837	0.852042
 36.6877	0.852046
 36.6917	0.852049
 36.6957	0.852053
 36.6997	0.852056
 36.7037	0.85206
 36.7077	0.852063
 36.7117	0.852066
 36.7157	0.85207
 36.7197	0.852073
 36.7237	0.852077
 36.7277	0.85208
 36.7317	0.852084
 36.7357	0.852087
 36.7397	0.852091
 36.7437	0.852094
 36.7477	0.852098
 36.7517	0.852101
 36.7557	0.852105
 36.7597	0.852108
 36.7637	0.852112
 36.7677	0.852115
 36.7717	0.852119
 36.7757	0.852122
 36.7797	0.852125
 36.7837	0.852129
 36.7877	0.852132
 36.7917	0.852136
 36.7957	0.852139
 36.7997	0.852143
 36.8037	0.852146
 36.8077	0.85215
 36.8117	0.852153
 36.8157	0.852157
 36.8197	0.85216
 36.8237	0.852163
 36.8277	0.852167
 36.8317	0.85217
 36.8357	0.852174
 36.8397	0.852177
 36.8437	0.852181
 36.8477	0.852184
 36.8517	0.852188
 36.8557	0.852191
 36.8597	0.852194
 36.8637	0.852198
 36.8677	0.852201
 36.8717	0.852205
 36.8757	0.852208
 36.8797	0.852212
 36.8837	0.852215
 36.8877	0.852218
 36.8917	0.852222
 36.8957	0.852225
 36.8997	0.852229
 36.9037	0.852232
 36.9077	0.852236
 36.9117	0.852239
 36.9157	0.852242
 36.9197	0.852246
 36.9237	0.852249
 36.9277	0.852253
 36.9317	0.852256
 36.9357	0.852259
 36.9397	0.852263
 36.9437	0.852266
 36.9477	0.85227
 36.9517	0.852273
 36.9557	0.852276
 36.9597	0.85228
 36.9637	0.852283
 36.9677	0.852287
 36.9717	0.85229
 36.9757	0.852293
 36.9797	0.852297
 36.9837	0.8523
 36.9877	0.852304
 36.9917	0.852307
 36.9957	0.85231
 36.9997	0.852314
 37.0037	0.852317
 37.0077	0.852321
 37.0117	0.852324
 37.0157	0.852327
 37.0197	0.852331
 37.0237	0.852334
 37.0277	0.852338
 37.0317	0.852341
 37.0357	0.852344
 37.0397	0.852348
 37.0437	0.852351
 37.0477	0.852354
 37.0517	0.852358
 37.0557	0.852361
 37.0597	0.852365
 37.0637	0.852368
 37.0677	0.852371
 37.0717	0.852375
 37.0757	0.852378
 37.0797	0.852381
 37.0837	0.852385
 37.0877	0.852388
 37.0917	0.852392
 37.0957	0.852395
 37.0997	0.852398
 37.1037	0.852402
 37.1077	0.852405
 37.1117	0.852408
 37.1157	0.852412
 37.1197	0.852415
 37.1237	0.852418
 37.1277	0.852422
 37.1317	0.852425
 37.1357	0.852429
 37.1397	0.852432
 37.1437	0.852435
 37.1477	0.852439
 37.1517	0.852442
 37.1557	0.852445
 37.1597	0.852449
 37.1637	0.852452
 37.1677	0.852455
 37.1717	0.852459
 37.1757	0.852462
 37.1797	0.852465
 37.1837	0.852469
 37.1877	0.852472
 37.1917	0.852475
 37.1957	0.852479
 37.1997	0.852482
 37.2037	0.852485
 37.2077	0.852489
 37.2117	0.852492
 37.2157	0.852495
 37.2197	0.852499
 37.2237	0.852502
 37.2277	0.852505
 37.2317	0.852509
 37.2357	0.852512
 37.2397	0.852515
 37.2437	0.852519
 37.2477	0.852522
 37.2517	0.852525
 37.2557	0.852529
 37.2597	0.852532
 37.2637	0.852535
 37.2677	0.852539
 37.2717	0.852542
 37.2757	0.852545
 37.2797	0.852548
 37.2837	0.852552
 37.2877	0.852555
 37.2917	0.852558
 37.2957	0.852562
 37.2997	0.852565
 37.3037	0.852568
 37.3077	0.852572
 37.3117	0.852575
 37.3157	0.852578
 37.3197	0.852581
 37.3237	0.852585
 37.3277	0.852588
 37.3317	0.852591
 37.3357	0.852595
 37.3397	0.852598
 37.3437	0.852601
 37.3477	0.852605
 37.3517	0.852608
 37.3557	0.852611
 37.3597	0.852614
 37.3637	0.852618
 37.3677	0.852621
 37.3717	0.852624
 37.3757	0.852628
 37.3797	0.852631
 37.3837	0.852634
 37.3877	0.852637
 37.3917	0.852641
 37.3957	0.852644
 37.3997	0.852647
 37.4037	0.85265
 37.4077	0.852654
 37.4117	0.852657
 37.4157	0.85266
 37.4197	0.852664
 37.4237	0.852667
 37.4277	0.85267
 37.4317	0.852673
 37.4357	0.852677
 37.4397	0.85268
 37.4437	0.852683
 37.4477	0.852686
 37.4517	0.85269
 37.4557	0.852693
 37.4597	0.852696
 37.4637	0.852699
 37.4677	0.852703
 37.4717	0.852706
 37.4757	0.852709
 37.4797	0.852712
 37.4837	0.852716
 37.4877	0.852719
 37.4917	0.852722
 37.4957	0.852725
 37.4997	0.852729
 37.5038	0.852732
 37.5078	0.852735
 37.5118	0.852738
 37.5158	0.852742
 37.5198	0.852745
 37.5238	0.852748
 37.5278	0.852751
 37.5318	0.852755
 37.5358	0.852758
 37.5398	0.852761
 37.5438	0.852764
 37.5478	0.852768
 37.5518	0.852771
 37.5558	0.852774
 37.5598	0.852777
 37.5638	0.852781
 37.5678	0.852784
 37.5718	0.852787
 37.5758	0.85279
 37.5798	0.852793
 37.5838	0.852797
 37.5878	0.8528
 37.5918	0.852803
 37.5958	0.852806
 37.5998	0.85281
 37.6038	0.852813
 37.6078	0.852816
 37.6118	0.852819
 37.6158	0.852822
 37.6198	0.852826
 37.6238	0.852829
 37.6278	0.852832
 37.6318	0.852835
 37.6358	0.852838
 37.6398	0.852842
 37.6438	0.852845
 37.6478	0.852848
 37.6518	0.852851
 37.6558	0.852854
 37.6598	0.852858
 37.6638	0.852861
 37.6678	0.852864
 37.6718	0.852867
 37.6758	0.85287
 37.6798	0.852874
 37.6838	0.852877
 37.6878	0.85288
 37.6918	0.852883
 37.6958	0.852886
 37.6998	0.85289
 37.7038	0.852893
 37.7078	0.852896
 37.7118	0.852899
 37.7158	0.852902
 37.7198	0.852906
 37.7238	0.852909
 37.7278	0.852912
 37.7318	0.852915
 37.7358	0.852918
 37.7398	0.852921
 37.7438	0.852925
 37.7478	0.852928
 37.7518	0.852931
 37.7558	0.852934
 37.7598	0.852937
 37.7638	0.852941
 37.7678	0.852944
 37.7718	0.852947
 37.7758	0.85295
 37.7798	0.852953
 37.7838	0.852956
 37.7878	0.85296
 37.7918	0.852963
 37.7958	0.852966
 37.7998	0.852969
 37.8038	0.852972
 37.8078	0.852975
 37.8118	0.852979
 37.8158	0.852982
 37.8198	0.852985
 37.8238	0.852988
 37.8278	0.852991
 37.8318	0.852994
 37.8358	0.852997
 37.8398	0.853001
 37.8438	0.853004
 37.8478	0.853007
 37.8518	0.85301
 37.8558	0.853013
 37.8598	0.853016
 37.8638	0.853019
 37.8678	0.853023
 37.8718	0.853026
 37.8758	0.853029
 37.8798	0.853032
 37.8838	0.853035
 37.8878	0.853038
 37.8918	0.853041
 37.8958	0.853045
 37.8998	0.853048
 37.9038	0.853051
 37.9078	0.853054
 37.9118	0.853057
 37.9158	0.85306
 37.9198	0.853063
 37.9238	0.853067
 37.9278	0.85307
 37.9318	0.853073
 37.9358	0.853076
 37.9398	0.853079
 37.9438	0.853082
 37.9478	0.853085
 37.9518	0.853088
 37.9558	0.853092
 37.9598	0.853095
 37.9638	0.853098
 37.9678	0.853101
 37.9718	0.853104
 37.9758	0.853107
 37.9798	0.85311
 37.9838	0.853113
 37.9878	0.853116
 37.9918	0.85312
 37.9958	0.853123
 37.9998	0.853126
 38.0038	0.853129
 38.0078	0.853132
 38.0118	0.853135
 38.0158	0.853138
 38.0198	0.853141
 38.0238	0.853144
 38.0278	0.853147
 38.0318	0.853151
 38.0358	0.853154
 38.0398	0.853157
 38.0438	0.85316
 38.0478	0.853163
 38.0518	0.853166
 38.0558	0.853169
 38.0598	0.853172
 38.0638	0.853175
 38.0678	0.853178
 38.0718	0.853182
 38.0758	0.853185
 38.0798	0.853188
 38.0838	0.853191
 38.0878	0.853194
 38.0918	0.853197
 38.0958	0.8532
 38.0998	0.853203
 38.1038	0.853206
 38.1078	0.853209
 38.1118	0.853212
 38.1158	0.853215
 38.1198	0.853219
 38.1238	0.853222
 38.1278	0.853225
 38.1318	0.853228
 38.1358	0.853231
 38.1398	0.853234
 38.1438	0.853237
 38.1478	0.85324
 38.1518	0.853243
 38.1558	0.853246
 38.1598	0.853249
 38.1638	0.853252
 38.1678	0.853255
 38.1718	0.853258
 38.1758	0.853261
 38.1798	0.853265
 38.1838	0.853268
 38.1878	0.853271
 38.1918	0.853274
 38.1958	0.853277
 38.1998	0.85328
 38.2038	0.853283
 38.2078	0.853286
 38.2118	0.853289
 38.2158	0.853292
 38.2198	0.853295
 38.2238	0.853298
 38.2278	0.853301
 38.2318	0.853304
 38.2358	0.853307
 38.2398	0.85331
 38.2438	0.853313
 38.2478	0.853316
 38.2518	0.853319
 38.2558	0.853322
 38.2598	0.853325
 38.2638	0.853329
 38.2678	0.853332
 38.2718	0.853335
 38.2758	0.853338
 38.2798	0.853341
 38.2838	0.853344
 38.2878	0.853347
 38.2918	0.85335
 38.2958	0.853353
 38.2998	0.853356
 38.3038	0.853359
 38.3078	0.853362
 38.3118	0.853365
 38.3158	0.853368
 38.3198	0.853371
 38.3238	0.853374
 38.3278	0.853377
 38.3318	0.85338
 38.3358	0.853383
 38.3398	0.853386
 38.3438	0.853389
 38.3478	0.853392
 38.3518	0.853395
 38.3558	0.853398
 38.3598	0.853401
 38.3638	0.853404
 38.3678	0.853407
 38.3718	0.85341
 38.3758	0.853413
 38.3798	0.853416
 38.3838	0.853419
 38.3878	0.853422
 38.3918	0.853425
 38.3958	0.853428
 38.3998	0.853431
 38.4038	0.853434
 38.4078	0.853437
 38.4118	0.85344
 38.4158	0.853443
 38.4198	0.853446
 38.4238	0.853449
 38.4278	0.853452
 38.4318	0.853455
 38.4358	0.853458
 38.4398	0.853461
 38.4438	0.853464
 38.4478	0.853467
 38.4518	0.85347
 38.4558	0.853473
 38.4598	0.853476
 38.4638	0.853479
 38.4678	0.853482
 38.4718	0.853485
 38.4758	0.853488
 38.4798	0.853491
 38.4838	0.853494
 38.4878	0.853497
 38.4918	0.8535
 38.4958	0.853503
 38.4998	0.853506
 38.5039	0.853509
 38.5079	0.853512
 38.5119	0.853515
 38.5159	0.853518
 38.5199	0.853521
 38.5239	0.853524
 38.5279	0.853527
 38.5319	0.85353
 38.5359	0.853533
 38.5399	0.853536
 38.5439	0.853539
 38.5479	0.853542
 38.5519	0.853544
 38.5559	0.853547
 38.5599	0.85355
 38.5639	0.853553
 38.5679	0.853556
 38.5719	0.853559
 38.5759	0.853562
 38.5799	0.853565
 38.5839	0.853568
 38.5879	0.853571
 38.5919	0.853574
 38.5959	0.853577
 38.5999	0.85358
 38.6039	0.853583
 38.6079	0.853586
 38.6119	0.853589
 38.6159	0.853592
 38.6199	0.853595
 38.6239	0.853598
 38.6279	0.853601
 38.6319	0.853604
 38.6359	0.853606
 38.6399	0.853609
 38.6439	0.853612
 38.6479	0.853615
 38.6519	0.853618
 38.6559	0.853621
 38.6599	0.853624
 38.6639	0.853627
 38.6679	0.85363
 38.6719	0.853633
 38.6759	0.853636
 38.6799	0.853639
 38.6839	0.853642
 38.6879	0.853645
 38.6919	0.853648
 38.6959	0.85365
 38.6999	0.853653
 38.7039	0.853656
 38.7079	0.853659
 38.7119	0.853662
 38.7159	0.853665
 38.7199	0.853668
 38.7239	0.853671
 38.7279	0.853674
 38.7319	0.853677
 38.7359	0.85368
 38.7399	0.853683
 38.7439	0.853685
 38.7479	0.853688
 38.7519	0.853691
 38.7559	0.853694
 38.7599	0.853697
 38.7639	0.8537
 38.7679	0.853703
 38.7719	0.853706
 38.7759	0.853709
 38.7799	0.853712
 38.7839	0.853715
 38.7879	0.853717
 38.7919	0.85372
 38.7959	0.853723
 38.7999	0.853726
 38.8039	0.853729
 38.8079	0.853732
 38.8119	0.853735
 38.8159	0.853738
 38.8199	0.853741
 38.8239	0.853744
 38.8279	0.853746
 38.8319	0.853749
 38.8359	0.853752
 38.8399	0.853755
 38.8439	0.853758
 38.8479	0.853761
 38.8519	0.853764
 38.8559	0.853767
 38.8599	0.85377
 38.8639	0.853772
 38.8679	0.853775
 38.8719	0.853778
 38.8759	0.853781
 38.8799	0.853784
 38.8839	0.853787
 38.8879	0.85379
 38.8919	0.853793
 38.8959	0.853795
 38.8999	0.853798
 38.9039	0.853801
 38.9079	0.853804
 38.9119	0.853807
 38.9159	0.85381
 38.9199	0.853813
 38.9239	0.853816
 38.9279	0.853818
 38.9319	0.853821
 38.9359	0.853824
 38.9399	0.853827
 38.9439	0.85383
 38.9479	0.853833
 38.9519	0.853836
 38.9559	0.853839
 38.9599	0.853841
 38.9639	0.853844
 38.9679	0.853847
 38.9719	0.85385
 38.9759	0.853853
 38.9799	0.853856
 38.9839	0.853859
 38.9879	0.853861
 38.9919	0.853864
 38.9959	0.853867
 38.9999	0.85387
 39.0039	0.853873
 39.0079	0.853876
 39.0119	0.853878
 39.0159	0.853881
 39.0199	0.853884
 39.0239	0.853887
 39.0279	0.85389
 39.0319	0.853893
 39.0359	0.853896
 39.0399	0.853898
 39.0439	0.853901
 39.0479	0.853904
 39.0519	0.853907
 39.0559	0.85391
 39.0599	0.853913
 39.0639	0.853915
 39.0679	0.853918
 39.0719	0.853921
 39.0759	0.853924
 39.0799	0.853927
 39.0839	0.85393
 39.0879	0.853932
 39.0919	0.853935
 39.0959	0.853938
 39.0999	0.853941
 39.1039	0.853944
 39.1079	0.853947
 39.1119	0.853949
 39.1159	0.853952
 39.1199	0.853955
 39.1239	0.853958
 39.1279	0.853961
 39.1319	0.853963
 39.1359	0.853966
 39.1399	0.853969
 39.1439	0.853972
 39.1479	0.853975
 39.1519	0.853978
 39.1559	0.85398
 39.1599	0.853983
 39.1639	0.853986
 39.1679	0.853989
 39.1719	0.853992
 39.1759	0.853994
 39.1799	0.853997
 39.1839	0.854
 39.1879	0.854003
 39.1919	0.854006
 39.1959	0.854008
 39.1999	0.854011
 39.2039	0.854014
 39.2079	0.854017
 39.2119	0.85402
 39.2159	0.854022
 39.2199	0.854025
 39.2239	0.854028
 39.2279	0.854031
 39.2319	0.854034
 39.2359	0.854036
 39.2399	0.854039
 39.2439	0.854042
 39.2479	0.854045
 39.2519	0.854048
 39.2559	0.85405
 39.2599	0.854053
 39.2639	0.854056
 39.2679	0.854059
 39.2719	0.854061
 39.2759	0.854064
 39.2799	0.854067
 39.2839	0.85407
 39.2879	0.854073
 39.2919	0.854075
 39.2959	0.854078
 39.2999	0.854081
 39.3039	0.854084
 39.3079	0.854087
 39.3119	0.854089
 39.3159	0.854092
 39.3199	0.854095
 39.3239	0.854098
 39.3279	0.8541
 39.3319	0.854103
 39.3359	0.854106
 39.3399	0.854109
 39.3439	0.854111
 39.3479	0.854114
 39.3519	0.854117
 39.3559	0.85412
 39.3599	0.854123
 39.3639	0.854125
 39.3679	0.854128
 39.3719	0.854131
 39.3759	0.854134
 39.3799	0.854136
 39.3839	0.854139
 39.3879	0.854142
 39.3919	0.854145
 39.3959	0.854147
 39.3999	0.85415
 39.4039	0.854153
 39.4079	0.854156
 39.4119	0.854158
 39.4159	0.854161
 39.4199	0.854164
 39.4239	0.854167
 39.4279	0.854169
 39.4319	0.854172
 39.4359	0.854175
 39.4399	0.854178
 39.4439	0.85418
 39.4479	0.854183
 39.4519	0.854186
 39.4559	0.854189
 39.4599	0.854191
 39.4639	0.854194
 39.4679	0.854197
 39.4719	0.8542
 39.4759	0.854202
 39.4799	0.854205
 39.4839	0.854208
 39.4879	0.85421
 39.4919	0.854213
 39.4959	0.854216
 39.4999	0.854219
 39.504	0.854221
 39.508	0.854224
 39.512	0.854227
 39.516	0.85423
 39.52	0.854232
 39.524	0.854235
 39.528	0.854238
 39.532	0.85424
 39.536	0.854243
 39.54	0.854246
 39.544	0.854249
 39.548	0.854251
 39.552	0.854254
 39.556	0.854257
 39.56	0.85426
 39.564	0.854262
 39.568	0.854265
 39.572	0.854268
 39.576	0.85427
 39.58	0.854273
 39.584	0.854276
 39.588	0.854279
 39.592	0.854281
 39.596	0.854284
 39.6	0.854287
 39.604	0.854289
 39.608	0.854292
 39.612	0.854295
 39.616	0.854297
 39.62	0.8543
 39.624	0.854303
 39.628	0.854306
 39.632	0.854308
 39.636	0.854311
 39.64	0.854314
 39.644	0.854316
 39.648	0.854319
 39.652	0.854322
 39.656	0.854324
 39.66	0.854327
 39.664	0.85433
 39.668	0.854333
 39.672	0.854335
 39.676	0.854338
 39.68	0.854341
 39.684	0.854343
 39.688	0.854346
 39.692	0.854349
 39.696	0.854351
 39.7	0.854354
 39.704	0.854357
 39.708	0.854359
 39.712	0.854362
 39.716	0.854365
 39.72	0.854367
 39.724	0.85437
 39.728	0.854373
 39.732	0.854375
 39.736	0.854378
 39.74	0.854381
 39.744	0.854384
 39.748	0.854386
 39.752	0.854389
 39.756	0.854392
 39.76	0.854394
 39.764	0.854397
 39.768	0.8544
 39.772	0.854402
 39.776	0.854405
 39.78	0.854408
 39.784	0.85441
 39.788	0.854413
 39.792	0.854416
 39.796	0.854418
 39.8	0.854421
 39.804	0.854424
 39.808	0.854426
 39.812	0.854429
 39.816	0.854432
 39.82	0.854434
 39.824	0.854437
 39.828	0.854439
 39.832	0.854442
 39.836	0.854445
 39.84	0.854447
 39.844	0.85445
 39.848	0.854453
 39.852	0.854455
 39.856	0.854458
 39.86	0.854461
 39.864	0.854463
 39.868	0.854466
 39.872	0.854469
 39.876	0.854471
 39.88	0.854474
 39.884	0.854477
 39.888	0.854479
 39.892	0.854482
 39.896	0.854485
 39.9	0.854487
 39.904	0.85449
 39.908	0.854492
 39.912	0.854495
 39.916	0.854498
 39.92	0.8545
 39.924	0.854503
 39.928	0.854506
 39.932	0.854508
 39.936	0.854511
 39.94	0.854513
 39.944	0.854516
 39.948	0.854519
 39.952	0.854521
 39.956	0.854524
 39.96	0.854527
 39.964	0.854529
 39.968	0.854532
 39.972	0.854535
 39.976	0.854537
 39.98	0.85454
 39.984	0.854542
 39.988	0.854545
 39.992	0.854548
 39.996	0.85455
 40	0.854553
