# Cut-survival probability for oxygen-recoil events
# within the acceptance region for dark-matter searches
# Energy [keV] | Cut-survival probability
 0	0
 0.0040004	0
 0.0080008	0
 0.0120012	0
 0.0160016	0
 0.020002	0
 0.0240024	0
 0.0280028	0
 0.0320032	0
 0.0360036	0
 0.040004	0
 0.0440044	0
 0.0480048	0
 0.0520052	0
 0.0560056	0
 0.060006	0
 0.0640064	0
 0.0680068	0
 0.0720072	0
 0.0760076	0
 0.080008	0
 0.0840084	0
 0.0880088	0
 0.0920092	0
 0.0960096	0
 0.10001	0
 0.10401	0
 0.108011	0
 0.112011	0
 0.116012	0
 0.120012	0
 0.124012	0
 0.128013	0
 0.132013	0
 0.136014	0
 0.140014	0
 0.144014	0
 0.148015	0
 0.152015	0
 0.156016	0
 0.160016	0
 0.164016	0
 0.168017	0
 0.172017	0
 0.176018	0
 0.180018	0
 0.184018	0
 0.188019	0
 0.192019	0
 0.19602	0
 0.20002	0
 0.20402	0
 0.208021	0
 0.212021	0
 0.216022	0
 0.220022	0
 0.224022	0
 0.228023	0
 0.232023	0
 0.236024	0
 0.240024	0
 0.244024	0
 0.248025	0
 0.252025	0
 0.256026	0
 0.260026	0
 0.264026	0
 0.268027	0
 0.272027	0
 0.276028	0
 0.280028	0
 0.284028	0
 0.288029	0
 0.292029	0
 0.29603	0
 0.30003	0
 0.30403	0
 0.308031	0
 0.312031	0
 0.316032	0
 0.320032	0
 0.324032	0
 0.328033	0
 0.332033	0
 0.336034	0
 0.340034	0
 0.344034	0
 0.348035	0
 0.352035	0
 0.356036	0
 0.360036	0
 0.364036	0
 0.368037	0
 0.372037	0
 0.376038	0
 0.380038	0
 0.384038	0
 0.388039	0
 0.392039	0
 0.39604	0
 0.40004	0
 0.40404	0
 0.408041	0
 0.412041	0
 0.416042	0
 0.420042	0
 0.424042	0
 0.428043	0
 0.432043	0
 0.436044	0
 0.440044	0
 0.444044	0
 0.448045	0
 0.452045	0
 0.456046	0
 0.460046	0
 0.464046	0
 0.468047	0
 0.472047	0
 0.476048	0
 0.480048	0
 0.484048	0
 0.488049	0
 0.492049	0
 0.49605	0
 0.50005	0
 0.50405	0
 0.508051	0
 0.512051	0
 0.516052	0
 0.520052	0
 0.524052	0
 0.528053	0
 0.532053	0
 0.536054	0
 0.540054	0
 0.544054	0
 0.548055	0
 0.552055	0
 0.556056	0
 0.560056	0
 0.564056	0
 0.568057	0
 0.572057	0
 0.576058	0
 0.580058	0
 0.584058	0
 0.588059	0
 0.592059	0
 0.59606	0
 0.60006	0
 0.60406	0.0736662
 0.608061	0.0752025
 0.612061	0.0767388
 0.616062	0.078275
 0.620062	0.0798113
 0.624062	0.0813475
 0.628063	0.0828838
 0.632063	0.08442
 0.636064	0.0859563
 0.640064	0.0874926
 0.644064	0.0890288
 0.648065	0.0905651
 0.652065	0.0921013
 0.656066	0.0936376
 0.660066	0.0951739
 0.664066	0.0967101
 0.668067	0.0982464
 0.672067	0.0997826
 0.676068	0.101319
 0.680068	0.102855
 0.684068	0.104391
 0.688069	0.105928
 0.692069	0.107464
 0.69607	0.109
 0.70007	0.110539
 0.70407	0.112204
 0.708071	0.113869
 0.712071	0.115535
 0.716072	0.1172
 0.720072	0.118865
 0.724072	0.120531
 0.728073	0.122196
 0.732073	0.123861
 0.736074	0.125527
 0.740074	0.127192
 0.744074	0.128857
 0.748075	0.130523
 0.752075	0.132188
 0.756076	0.133853
 0.760076	0.135519
 0.764076	0.137184
 0.768077	0.138849
 0.772077	0.140514
 0.776078	0.14218
 0.780078	0.143845
 0.784078	0.14551
 0.788079	0.147176
 0.792079	0.148841
 0.79608	0.150506
 0.80008	0.152169
 0.80408	0.153717
 0.808081	0.155264
 0.812081	0.156812
 0.816082	0.15836
 0.820082	0.159907
 0.824082	0.161455
 0.828083	0.163002
 0.832083	0.16455
 0.836084	0.166097
 0.840084	0.167645
 0.844084	0.169192
 0.848085	0.17074
 0.852085	0.172288
 0.856086	0.173835
 0.860086	0.175383
 0.864086	0.17693
 0.868087	0.178478
 0.872087	0.180025
 0.876088	0.181573
 0.880088	0.18312
 0.884088	0.184668
 0.888089	0.186215
 0.892089	0.187763
 0.89609	0.189311
 0.90009	0.190854
 0.90409	0.192202
 0.908091	0.193551
 0.912091	0.1949
 0.916092	0.196248
 0.920092	0.197597
 0.924092	0.198946
 0.928093	0.200295
 0.932093	0.201643
 0.936094	0.202992
 0.940094	0.204341
 0.944094	0.205689
 0.948095	0.207038
 0.952095	0.208387
 0.956096	0.209736
 0.960096	0.211084
 0.964096	0.212433
 0.968097	0.213782
 0.972097	0.21513
 0.976098	0.216479
 0.980098	0.217828
 0.984098	0.219177
 0.988099	0.220525
 0.992099	0.221874
 0.9961	0.223223
 1.0001	0.224563
 1.0041	0.225582
 1.0081	0.2266
 1.0121	0.227618
 1.0161	0.228637
 1.0201	0.229655
 1.0241	0.230674
 1.0281	0.231692
 1.0321	0.23271
 1.0361	0.233729
 1.0401	0.234747
 1.0441	0.235765
 1.0481	0.236784
 1.05211	0.237802
 1.05611	0.238821
 1.06011	0.239839
 1.06411	0.240857
 1.06811	0.241876
 1.07211	0.242894
 1.07611	0.243913
 1.08011	0.244931
 1.08411	0.245949
 1.08811	0.246968
 1.09211	0.247986
 1.09611	0.249005
 1.10011	0.250023
 1.10411	0.251041
 1.10811	0.25206
 1.11211	0.253078
 1.11611	0.254097
 1.12011	0.255115
 1.12411	0.256133
 1.12811	0.257152
 1.13211	0.25817
 1.13611	0.259188
 1.14011	0.260207
 1.14411	0.261225
 1.14811	0.262244
 1.15212	0.263262
 1.15612	0.26428
 1.16012	0.265299
 1.16412	0.266317
 1.16812	0.267336
 1.17212	0.268354
 1.17612	0.269372
 1.18012	0.270391
 1.18412	0.271409
 1.18812	0.272428
 1.19212	0.273446
 1.19612	0.274464
 1.20012	0.275473
 1.20412	0.276181
 1.20812	0.276888
 1.21212	0.277595
 1.21612	0.278302
 1.22012	0.27901
 1.22412	0.279717
 1.22812	0.280424
 1.23212	0.281131
 1.23612	0.281838
 1.24012	0.282546
 1.24412	0.283253
 1.24812	0.28396
 1.25213	0.284667
 1.25613	0.285375
 1.26013	0.286082
 1.26413	0.286789
 1.26813	0.287496
 1.27213	0.288203
 1.27613	0.288911
 1.28013	0.289618
 1.28413	0.290325
 1.28813	0.291032
 1.29213	0.29174
 1.29613	0.292447
 1.30013	0.293154
 1.30413	0.293861
 1.30813	0.294569
 1.31213	0.295276
 1.31613	0.295983
 1.32013	0.29669
 1.32413	0.297397
 1.32813	0.298105
 1.33213	0.298812
 1.33613	0.299519
 1.34013	0.300226
 1.34413	0.300934
 1.34813	0.301641
 1.35214	0.302348
 1.35614	0.303055
 1.36014	0.303762
 1.36414	0.30447
 1.36814	0.305177
 1.37214	0.305884
 1.37614	0.306591
 1.38014	0.307299
 1.38414	0.308006
 1.38814	0.308713
 1.39214	0.30942
 1.39614	0.310128
 1.40014	0.310827
 1.40414	0.311327
 1.40814	0.311827
 1.41214	0.312327
 1.41614	0.312827
 1.42014	0.313327
 1.42414	0.313827
 1.42814	0.314327
 1.43214	0.314827
 1.43614	0.315327
 1.44014	0.315827
 1.44414	0.316327
 1.44814	0.316827
 1.45215	0.317326
 1.45615	0.317826
 1.46015	0.318326
 1.46415	0.318826
 1.46815	0.319326
 1.47215	0.319826
 1.47615	0.320326
 1.48015	0.320826
 1.48415	0.321326
 1.48815	0.321826
 1.49215	0.322326
 1.49615	0.322826
 1.50015	0.323325
 1.50415	0.323825
 1.50815	0.324325
 1.51215	0.324825
 1.51615	0.325325
 1.52015	0.325825
 1.52415	0.326325
 1.52815	0.326825
 1.53215	0.327325
 1.53615	0.327825
 1.54015	0.328325
 1.54415	0.328825
 1.54815	0.329324
 1.55216	0.329824
 1.55616	0.330324
 1.56016	0.330824
 1.56416	0.331324
 1.56816	0.331824
 1.57216	0.332324
 1.57616	0.332824
 1.58016	0.333324
 1.58416	0.333824
 1.58816	0.334324
 1.59216	0.334824
 1.59616	0.335324
 1.60016	0.33582
 1.60416	0.336225
 1.60816	0.33663
 1.61216	0.337034
 1.61616	0.337439
 1.62016	0.337844
 1.62416	0.338249
 1.62816	0.338654
 1.63216	0.339059
 1.63616	0.339464
 1.64016	0.339869
 1.64416	0.340274
 1.64816	0.340679
 1.65217	0.341084
 1.65617	0.341489
 1.66017	0.341894
 1.66417	0.342299
 1.66817	0.342704
 1.67217	0.343108
 1.67617	0.343513
 1.68017	0.343918
 1.68417	0.344323
 1.68817	0.344728
 1.69217	0.345133
 1.69617	0.345538
 1.70017	0.345943
 1.70417	0.346348
 1.70817	0.346753
 1.71217	0.347158
 1.71617	0.347563
 1.72017	0.347968
 1.72417	0.348373
 1.72817	0.348778
 1.73217	0.349183
 1.73617	0.349587
 1.74017	0.349992
 1.74417	0.350397
 1.74817	0.350802
 1.75218	0.351207
 1.75618	0.351612
 1.76018	0.352017
 1.76418	0.352422
 1.76818	0.352827
 1.77218	0.353232
 1.77618	0.353637
 1.78018	0.354042
 1.78418	0.354447
 1.78818	0.354852
 1.79218	0.355257
 1.79618	0.355662
 1.80018	0.356063
 1.80418	0.356385
 1.80818	0.356708
 1.81218	0.35703
 1.81618	0.357353
 1.82018	0.357675
 1.82418	0.357997
 1.82818	0.35832
 1.83218	0.358642
 1.83618	0.358965
 1.84018	0.359287
 1.84418	0.35961
 1.84818	0.359932
 1.85219	0.360255
 1.85619	0.360577
 1.86019	0.3609
 1.86419	0.361222
 1.86819	0.361545
 1.87219	0.361867
 1.87619	0.362189
 1.88019	0.362512
 1.88419	0.362834
 1.88819	0.363157
 1.89219	0.363479
 1.89619	0.363802
 1.90019	0.364124
 1.90419	0.364447
 1.90819	0.364769
 1.91219	0.365092
 1.91619	0.365414
 1.92019	0.365736
 1.92419	0.366059
 1.92819	0.366381
 1.93219	0.366704
 1.93619	0.367026
 1.94019	0.367349
 1.94419	0.367671
 1.94819	0.367994
 1.9522	0.368316
 1.9562	0.368639
 1.9602	0.368961
 1.9642	0.369283
 1.9682	0.369606
 1.9722	0.369928
 1.9762	0.370251
 1.9802	0.370573
 1.9842	0.370896
 1.9882	0.371218
 1.9922	0.371541
 1.9962	0.371863
 2.0002	0.372181
 2.0042	0.372411
 2.0082	0.372642
 2.0122	0.372872
 2.0162	0.373102
 2.0202	0.373332
 2.0242	0.373563
 2.0282	0.373793
 2.0322	0.374023
 2.0362	0.374254
 2.0402	0.374484
 2.0442	0.374714
 2.0482	0.374945
 2.05221	0.375175
 2.05621	0.375405
 2.06021	0.375635
 2.06421	0.375866
 2.06821	0.376096
 2.07221	0.376326
 2.07621	0.376557
 2.08021	0.376787
 2.08421	0.377017
 2.08821	0.377248
 2.09221	0.377478
 2.09621	0.377708
 2.10021	0.377938
 2.10421	0.378169
 2.10821	0.378399
 2.11221	0.378629
 2.11621	0.37886
 2.12021	0.37909
 2.12421	0.37932
 2.12821	0.37955
 2.13221	0.379781
 2.13621	0.380011
 2.14021	0.380241
 2.14421	0.380472
 2.14821	0.380702
 2.15222	0.380932
 2.15622	0.381163
 2.16022	0.381393
 2.16422	0.381623
 2.16822	0.381853
 2.17222	0.382084
 2.17622	0.382314
 2.18022	0.382544
 2.18422	0.382775
 2.18822	0.383005
 2.19222	0.383235
 2.19622	0.383466
 2.20022	0.383693
 2.20422	0.383873
 2.20822	0.384054
 2.21222	0.384234
 2.21622	0.384414
 2.22022	0.384595
 2.22422	0.384775
 2.22822	0.384955
 2.23222	0.385135
 2.23622	0.385316
 2.24022	0.385496
 2.24422	0.385676
 2.24822	0.385857
 2.25223	0.386037
 2.25623	0.386217
 2.26023	0.386397
 2.26423	0.386578
 2.26823	0.386758
 2.27223	0.386938
 2.27623	0.387119
 2.28023	0.387299
 2.28423	0.387479
 2.28823	0.387659
 2.29223	0.38784
 2.29623	0.38802
 2.30023	0.3882
 2.30423	0.388381
 2.30823	0.388561
 2.31223	0.388741
 2.31623	0.388921
 2.32023	0.389102
 2.32423	0.389282
 2.32823	0.389462
 2.33223	0.389643
 2.33623	0.389823
 2.34023	0.390003
 2.34423	0.390183
 2.34823	0.390364
 2.35224	0.390544
 2.35624	0.390724
 2.36024	0.390905
 2.36424	0.391085
 2.36824	0.391265
 2.37224	0.391445
 2.37624	0.391626
 2.38024	0.391806
 2.38424	0.391986
 2.38824	0.392167
 2.39224	0.392347
 2.39624	0.392527
 2.40024	0.392705
 2.40424	0.392851
 2.40824	0.392997
 2.41224	0.393143
 2.41624	0.393289
 2.42024	0.393434
 2.42424	0.39358
 2.42824	0.393726
 2.43224	0.393872
 2.43624	0.394018
 2.44024	0.394163
 2.44424	0.394309
 2.44824	0.394455
 2.45225	0.394601
 2.45625	0.394747
 2.46025	0.394892
 2.46425	0.395038
 2.46825	0.395184
 2.47225	0.39533
 2.47625	0.395476
 2.48025	0.395621
 2.48425	0.395767
 2.48825	0.395913
 2.49225	0.396059
 2.49625	0.396205
 2.50025	0.39635
 2.50425	0.396496
 2.50825	0.396642
 2.51225	0.396788
 2.51625	0.396934
 2.52025	0.397079
 2.52425	0.397225
 2.52825	0.397371
 2.53225	0.397517
 2.53625	0.397663
 2.54025	0.397808
 2.54425	0.397954
 2.54825	0.3981
 2.55226	0.398246
 2.55626	0.398392
 2.56026	0.398537
 2.56426	0.398683
 2.56826	0.398829
 2.57226	0.398975
 2.57626	0.399121
 2.58026	0.399266
 2.58426	0.399412
 2.58826	0.399558
 2.59226	0.399704
 2.59626	0.39985
 2.60026	0.399993
 2.60426	0.400098
 2.60826	0.400202
 2.61226	0.400307
 2.61626	0.400412
 2.62026	0.400517
 2.62426	0.400622
 2.62826	0.400727
 2.63226	0.400832
 2.63626	0.400936
 2.64026	0.401041
 2.64426	0.401146
 2.64826	0.401251
 2.65227	0.401356
 2.65627	0.401461
 2.66027	0.401566
 2.66427	0.401671
 2.66827	0.401775
 2.67227	0.40188
 2.67627	0.401985
 2.68027	0.40209
 2.68427	0.402195
 2.68827	0.4023
 2.69227	0.402405
 2.69627	0.402509
 2.70027	0.402614
 2.70427	0.402719
 2.70827	0.402824
 2.71227	0.402929
 2.71627	0.403034
 2.72027	0.403139
 2.72427	0.403243
 2.72827	0.403348
 2.73227	0.403453
 2.73627	0.403558
 2.74027	0.403663
 2.74427	0.403768
 2.74827	0.403873
 2.75228	0.403978
 2.75628	0.404082
 2.76028	0.404187
 2.76428	0.404292
 2.76828	0.404397
 2.77228	0.404502
 2.77628	0.404607
 2.78028	0.404712
 2.78428	0.404816
 2.78828	0.404921
 2.79228	0.405026
 2.79628	0.405131
 2.80028	0.405234
 2.80428	0.405317
 2.80828	0.4054
 2.81228	0.405482
 2.81628	0.405565
 2.82028	0.405648
 2.82428	0.40573
 2.82828	0.405813
 2.83228	0.405896
 2.83628	0.405978
 2.84028	0.406061
 2.84428	0.406144
 2.84828	0.406227
 2.85229	0.406309
 2.85629	0.406392
 2.86029	0.406475
 2.86429	0.406557
 2.86829	0.40664
 2.87229	0.406723
 2.87629	0.406805
 2.88029	0.406888
 2.88429	0.406971
 2.88829	0.407053
 2.89229	0.407136
 2.89629	0.407219
 2.90029	0.407301
 2.90429	0.407384
 2.90829	0.407467
 2.91229	0.407549
 2.91629	0.407632
 2.92029	0.407715
 2.92429	0.407797
 2.92829	0.40788
 2.93229	0.407963
 2.93629	0.408045
 2.94029	0.408128
 2.94429	0.408211
 2.94829	0.408294
 2.9523	0.408376
 2.9563	0.408459
 2.9603	0.408542
 2.9643	0.408624
 2.9683	0.408707
 2.9723	0.40879
 2.9763	0.408872
 2.9803	0.408955
 2.9843	0.409038
 2.9883	0.40912
 2.9923	0.409203
 2.9963	0.409286
 3.0003	0.409366
 3.0043	0.409423
 3.0083	0.40948
 3.0123	0.409536
 3.0163	0.409593
 3.0203	0.409649
 3.0243	0.409706
 3.0283	0.409762
 3.0323	0.409819
 3.0363	0.409875
 3.0403	0.409932
 3.0443	0.409988
 3.0483	0.410045
 3.05231	0.410102
 3.05631	0.410158
 3.06031	0.410215
 3.06431	0.410271
 3.06831	0.410328
 3.07231	0.410384
 3.07631	0.410441
 3.08031	0.410497
 3.08431	0.410554
 3.08831	0.41061
 3.09231	0.410667
 3.09631	0.410724
 3.10031	0.41078
 3.10431	0.410837
 3.10831	0.410893
 3.11231	0.41095
 3.11631	0.411006
 3.12031	0.411063
 3.12431	0.411119
 3.12831	0.411176
 3.13231	0.411232
 3.13631	0.411289
 3.14031	0.411346
 3.14431	0.411402
 3.14831	0.411459
 3.15232	0.411515
 3.15632	0.411572
 3.16032	0.411628
 3.16432	0.411685
 3.16832	0.411741
 3.17232	0.411798
 3.17632	0.411854
 3.18032	0.411911
 3.18432	0.411968
 3.18832	0.412024
 3.19232	0.412081
 3.19632	0.412137
 3.20032	0.412194
 3.20432	0.41225
 3.20832	0.412307
 3.21232	0.412363
 3.21632	0.41242
 3.22032	0.412476
 3.22432	0.412533
 3.22832	0.41259
 3.23232	0.412646
 3.23632	0.412703
 3.24032	0.412759
 3.24432	0.412816
 3.24832	0.412872
 3.25233	0.412929
 3.25633	0.412985
 3.26033	0.413042
 3.26433	0.413098
 3.26833	0.413155
 3.27233	0.413212
 3.27633	0.413268
 3.28033	0.413325
 3.28433	0.413381
 3.28833	0.413438
 3.29233	0.413494
 3.29633	0.413551
 3.30033	0.413607
 3.30433	0.413664
 3.30833	0.41372
 3.31233	0.413777
 3.31633	0.413834
 3.32033	0.41389
 3.32433	0.413947
 3.32833	0.414003
 3.33233	0.41406
 3.33633	0.414116
 3.34033	0.414173
 3.34433	0.414229
 3.34833	0.414286
 3.35234	0.414342
 3.35634	0.414399
 3.36034	0.414456
 3.36434	0.414512
 3.36834	0.414569
 3.37234	0.414625
 3.37634	0.414682
 3.38034	0.414738
 3.38434	0.414795
 3.38834	0.414851
 3.39234	0.414908
 3.39634	0.414964
 3.40034	0.415021
 3.40434	0.415078
 3.40834	0.415134
 3.41234	0.415191
 3.41634	0.415247
 3.42034	0.415304
 3.42434	0.41536
 3.42834	0.415417
 3.43234	0.415473
 3.43634	0.41553
 3.44034	0.415586
 3.44434	0.415643
 3.44834	0.4157
 3.45235	0.415756
 3.45635	0.415813
 3.46035	0.415869
 3.46435	0.415926
 3.46835	0.415982
 3.47235	0.416039
 3.47635	0.416095
 3.48035	0.416152
 3.48435	0.416208
 3.48835	0.416265
 3.49235	0.416322
 3.49635	0.416378
 3.50035	0.416433
 3.50435	0.416467
 3.50835	0.416501
 3.51235	0.416535
 3.51635	0.416569
 3.52035	0.416603
 3.52435	0.416637
 3.52835	0.416671
 3.53235	0.416705
 3.53635	0.416739
 3.54035	0.416773
 3.54435	0.416807
 3.54835	0.416841
 3.55236	0.416875
 3.55636	0.416909
 3.56036	0.416943
 3.56436	0.416977
 3.56836	0.417011
 3.57236	0.417045
 3.57636	0.417079
 3.58036	0.417114
 3.58436	0.417148
 3.58836	0.417182
 3.59236	0.417216
 3.59636	0.41725
 3.60036	0.417284
 3.60436	0.417318
 3.60836	0.417352
 3.61236	0.417386
 3.61636	0.41742
 3.62036	0.417454
 3.62436	0.417488
 3.62836	0.417522
 3.63236	0.417556
 3.63636	0.41759
 3.64036	0.417624
 3.64436	0.417658
 3.64836	0.417692
 3.65237	0.417726
 3.65637	0.41776
 3.66037	0.417794
 3.66437	0.417828
 3.66837	0.417862
 3.67237	0.417896
 3.67637	0.41793
 3.68037	0.417965
 3.68437	0.417999
 3.68837	0.418033
 3.69237	0.418067
 3.69637	0.418101
 3.70037	0.418135
 3.70437	0.418169
 3.70837	0.418203
 3.71237	0.418237
 3.71637	0.418271
 3.72037	0.418305
 3.72437	0.418339
 3.72837	0.418373
 3.73237	0.418407
 3.73637	0.418441
 3.74037	0.418475
 3.74437	0.418509
 3.74837	0.418543
 3.75238	0.418577
 3.75638	0.418611
 3.76038	0.418645
 3.76438	0.418679
 3.76838	0.418713
 3.77238	0.418747
 3.77638	0.418782
 3.78038	0.418816
 3.78438	0.41885
 3.78838	0.418884
 3.79238	0.418918
 3.79638	0.418952
 3.80038	0.418986
 3.80438	0.41902
 3.80838	0.419054
 3.81238	0.419088
 3.81638	0.419122
 3.82038	0.419156
 3.82438	0.41919
 3.82838	0.419224
 3.83238	0.419258
 3.83638	0.419292
 3.84038	0.419326
 3.84438	0.41936
 3.84838	0.419394
 3.85239	0.419428
 3.85639	0.419462
 3.86039	0.419496
 3.86439	0.41953
 3.86839	0.419564
 3.87239	0.419598
 3.87639	0.419633
 3.88039	0.419667
 3.88439	0.419701
 3.88839	0.419735
 3.89239	0.419769
 3.89639	0.419803
 3.90039	0.419837
 3.90439	0.419871
 3.90839	0.419905
 3.91239	0.419939
 3.91639	0.419973
 3.92039	0.420007
 3.92439	0.420041
 3.92839	0.420075
 3.93239	0.420109
 3.93639	0.420143
 3.94039	0.420177
 3.94439	0.420211
 3.94839	0.420245
 3.9524	0.420279
 3.9564	0.420313
 3.9604	0.420347
 3.9644	0.420381
 3.9684	0.420415
 3.9724	0.420449
 3.9764	0.420484
 3.9804	0.420518
 3.9844	0.420552
 3.9884	0.420586
 3.9924	0.42062
 3.9964	0.420654
 4.0004	0.420687
 4.0044	0.42071
 4.0084	0.420732
 4.0124	0.420755
 4.0164	0.420778
 4.0204	0.420801
 4.0244	0.420824
 4.0284	0.420847
 4.0324	0.42087
 4.0364	0.420893
 4.0404	0.420916
 4.0444	0.420939
 4.0484	0.420962
 4.05241	0.420984
 4.05641	0.421007
 4.06041	0.42103
 4.06441	0.421053
 4.06841	0.421076
 4.07241	0.421099
 4.07641	0.421122
 4.08041	0.421145
 4.08441	0.421168
 4.08841	0.421191
 4.09241	0.421214
 4.09641	0.421236
 4.10041	0.421259
 4.10441	0.421282
 4.10841	0.421305
 4.11241	0.421328
 4.11641	0.421351
 4.12041	0.421374
 4.12441	0.421397
 4.12841	0.42142
 4.13241	0.421443
 4.13641	0.421466
 4.14041	0.421488
 4.14441	0.421511
 4.14841	0.421534
 4.15242	0.421557
 4.15642	0.42158
 4.16042	0.421603
 4.16442	0.421626
 4.16842	0.421649
 4.17242	0.421672
 4.17642	0.421695
 4.18042	0.421718
 4.18442	0.42174
 4.18842	0.421763
 4.19242	0.421786
 4.19642	0.421809
 4.20042	0.421832
 4.20442	0.421855
 4.20842	0.421878
 4.21242	0.421901
 4.21642	0.421924
 4.22042	0.421947
 4.22442	0.42197
 4.22842	0.421992
 4.23242	0.422015
 4.23642	0.422038
 4.24042	0.422061
 4.24442	0.422084
 4.24842	0.422107
 4.25243	0.42213
 4.25643	0.422153
 4.26043	0.422176
 4.26443	0.422199
 4.26843	0.422222
 4.27243	0.422244
 4.27643	0.422267
 4.28043	0.42229
 4.28443	0.422313
 4.28843	0.422336
 4.29243	0.422359
 4.29643	0.422382
 4.30043	0.422405
 4.30443	0.422428
 4.30843	0.422451
 4.31243	0.422474
 4.31643	0.422496
 4.32043	0.422519
 4.32443	0.422542
 4.32843	0.422565
 4.33243	0.422588
 4.33643	0.422611
 4.34043	0.422634
 4.34443	0.422657
 4.34843	0.42268
 4.35244	0.422703
 4.35644	0.422726
 4.36044	0.422748
 4.36444	0.422771
 4.36844	0.422794
 4.37244	0.422817
 4.37644	0.42284
 4.38044	0.422863
 4.38444	0.422886
 4.38844	0.422909
 4.39244	0.422932
 4.39644	0.422955
 4.40044	0.422978
 4.40444	0.423
 4.40844	0.423023
 4.41244	0.423046
 4.41644	0.423069
 4.42044	0.423092
 4.42444	0.423115
 4.42844	0.423138
 4.43244	0.423161
 4.43644	0.423184
 4.44044	0.423207
 4.44444	0.42323
 4.44844	0.423252
 4.45245	0.423275
 4.45645	0.423298
 4.46045	0.423321
 4.46445	0.423344
 4.46845	0.423367
 4.47245	0.42339
 4.47645	0.423413
 4.48045	0.423436
 4.48445	0.423459
 4.48845	0.423482
 4.49245	0.423504
 4.49645	0.423527
 4.50045	0.42355
 4.50445	0.423567
 4.50845	0.423584
 4.51245	0.423602
 4.51645	0.423619
 4.52045	0.423637
 4.52445	0.423654
 4.52845	0.423672
 4.53245	0.423689
 4.53645	0.423706
 4.54045	0.423724
 4.54445	0.423741
 4.54845	0.423759
 4.55246	0.423776
 4.55646	0.423794
 4.56046	0.423811
 4.56446	0.423828
 4.56846	0.423846
 4.57246	0.423863
 4.57646	0.423881
 4.58046	0.423898
 4.58446	0.423916
 4.58846	0.423933
 4.59246	0.42395
 4.59646	0.423968
 4.60046	0.423985
 4.60446	0.424003
 4.60846	0.42402
 4.61246	0.424038
 4.61646	0.424055
 4.62046	0.424072
 4.62446	0.42409
 4.62846	0.424107
 4.63246	0.424125
 4.63646	0.424142
 4.64046	0.424159
 4.64446	0.424177
 4.64846	0.424194
 4.65247	0.424212
 4.65647	0.424229
 4.66047	0.424247
 4.66447	0.424264
 4.66847	0.424281
 4.67247	0.424299
 4.67647	0.424316
 4.68047	0.424334
 4.68447	0.424351
 4.68847	0.424369
 4.69247	0.424386
 4.69647	0.424403
 4.70047	0.424421
 4.70447	0.424438
 4.70847	0.424456
 4.71247	0.424473
 4.71647	0.424491
 4.72047	0.424508
 4.72447	0.424525
 4.72847	0.424543
 4.73247	0.42456
 4.73647	0.424578
 4.74047	0.424595
 4.74447	0.424612
 4.74847	0.42463
 4.75248	0.424647
 4.75648	0.424665
 4.76048	0.424682
 4.76448	0.4247
 4.76848	0.424717
 4.77248	0.424734
 4.77648	0.424752
 4.78048	0.424769
 4.78448	0.424787
 4.78848	0.424804
 4.79248	0.424822
 4.79648	0.424839
 4.80048	0.424856
 4.80448	0.424874
 4.80848	0.424891
 4.81248	0.424909
 4.81648	0.424926
 4.82048	0.424944
 4.82448	0.424961
 4.82848	0.424978
 4.83248	0.424996
 4.83648	0.425013
 4.84048	0.425031
 4.84448	0.425048
 4.84848	0.425065
 4.85249	0.425083
 4.85649	0.4251
 4.86049	0.425118
 4.86449	0.425135
 4.86849	0.425153
 4.87249	0.42517
 4.87649	0.425187
 4.88049	0.425205
 4.88449	0.425222
 4.88849	0.42524
 4.89249	0.425257
 4.89649	0.425275
 4.90049	0.425292
 4.90449	0.425309
 4.90849	0.425327
 4.91249	0.425344
 4.91649	0.425362
 4.92049	0.425379
 4.92449	0.425397
 4.92849	0.425414
 4.93249	0.425431
 4.93649	0.425449
 4.94049	0.425466
 4.94449	0.425484
 4.94849	0.425501
 4.9525	0.425518
 4.9565	0.425536
 4.9605	0.425553
 4.9645	0.425571
 4.9685	0.425588
 4.9725	0.425606
 4.9765	0.425623
 4.9805	0.42564
 4.9845	0.425658
 4.9885	0.425675
 4.9925	0.425693
 4.9965	0.42571
 5.0005	0.425727
 5.0045	0.425735
 5.0085	0.425744
 5.0125	0.425753
 5.0165	0.425762
 5.0205	0.425771
 5.0245	0.42578
 5.0285	0.425789
 5.0325	0.425798
 5.0365	0.425807
 5.0405	0.425816
 5.0445	0.425825
 5.0485	0.425834
 5.05251	0.425843
 5.05651	0.425852
 5.06051	0.425861
 5.06451	0.42587
 5.06851	0.425879
 5.07251	0.425888
 5.07651	0.425897
 5.08051	0.425906
 5.08451	0.425915
 5.08851	0.425924
 5.09251	0.425932
 5.09651	0.425941
 5.10051	0.42595
 5.10451	0.425959
 5.10851	0.425968
 5.11251	0.425977
 5.11651	0.425986
 5.12051	0.425995
 5.12451	0.426004
 5.12851	0.426013
 5.13251	0.426022
 5.13651	0.426031
 5.14051	0.42604
 5.14451	0.426049
 5.14851	0.426058
 5.15252	0.426067
 5.15652	0.426076
 5.16052	0.426085
 5.16452	0.426094
 5.16852	0.426103
 5.17252	0.426112
 5.17652	0.42612
 5.18052	0.426129
 5.18452	0.426138
 5.18852	0.426147
 5.19252	0.426156
 5.19652	0.426165
 5.20052	0.426174
 5.20452	0.426183
 5.20852	0.426192
 5.21252	0.426201
 5.21652	0.42621
 5.22052	0.426219
 5.22452	0.426228
 5.22852	0.426237
 5.23252	0.426246
 5.23652	0.426255
 5.24052	0.426264
 5.24452	0.426273
 5.24852	0.426282
 5.25253	0.426291
 5.25653	0.4263
 5.26053	0.426309
 5.26453	0.426317
 5.26853	0.426326
 5.27253	0.426335
 5.27653	0.426344
 5.28053	0.426353
 5.28453	0.426362
 5.28853	0.426371
 5.29253	0.42638
 5.29653	0.426389
 5.30053	0.426398
 5.30453	0.426407
 5.30853	0.426416
 5.31253	0.426425
 5.31653	0.426434
 5.32053	0.426443
 5.32453	0.426452
 5.32853	0.426461
 5.33253	0.42647
 5.33653	0.426479
 5.34053	0.426488
 5.34453	0.426497
 5.34853	0.426505
 5.35254	0.426514
 5.35654	0.426523
 5.36054	0.426532
 5.36454	0.426541
 5.36854	0.42655
 5.37254	0.426559
 5.37654	0.426568
 5.38054	0.426577
 5.38454	0.426586
 5.38854	0.426595
 5.39254	0.426604
 5.39654	0.426613
 5.40054	0.426622
 5.40454	0.426631
 5.40854	0.42664
 5.41254	0.426649
 5.41654	0.426658
 5.42054	0.426667
 5.42454	0.426676
 5.42854	0.426685
 5.43254	0.426694
 5.43654	0.426702
 5.44054	0.426711
 5.44454	0.42672
 5.44854	0.426729
 5.45255	0.426738
 5.45655	0.426747
 5.46055	0.426756
 5.46455	0.426765
 5.46855	0.426774
 5.47255	0.426783
 5.47655	0.426792
 5.48055	0.426801
 5.48455	0.42681
 5.48855	0.426819
 5.49255	0.426828
 5.49655	0.426837
 5.50055	0.426845
 5.50455	0.426851
 5.50855	0.426856
 5.51255	0.426862
 5.51655	0.426868
 5.52055	0.426873
 5.52455	0.426879
 5.52855	0.426884
 5.53255	0.42689
 5.53655	0.426895
 5.54055	0.426901
 5.54455	0.426906
 5.54855	0.426912
 5.55256	0.426918
 5.55656	0.426923
 5.56056	0.426929
 5.56456	0.426934
 5.56856	0.42694
 5.57256	0.426945
 5.57656	0.426951
 5.58056	0.426957
 5.58456	0.426962
 5.58856	0.426968
 5.59256	0.426973
 5.59656	0.426979
 5.60056	0.426984
 5.60456	0.42699
 5.60856	0.426996
 5.61256	0.427001
 5.61656	0.427007
 5.62056	0.427012
 5.62456	0.427018
 5.62856	0.427023
 5.63256	0.427029
 5.63656	0.427035
 5.64056	0.42704
 5.64456	0.427046
 5.64856	0.427051
 5.65257	0.427057
 5.65657	0.427062
 5.66057	0.427068
 5.66457	0.427073
 5.66857	0.427079
 5.67257	0.427085
 5.67657	0.42709
 5.68057	0.427096
 5.68457	0.427101
 5.68857	0.427107
 5.69257	0.427112
 5.69657	0.427118
 5.70057	0.427124
 5.70457	0.427129
 5.70857	0.427135
 5.71257	0.42714
 5.71657	0.427146
 5.72057	0.427151
 5.72457	0.427157
 5.72857	0.427163
 5.73257	0.427168
 5.73657	0.427174
 5.74057	0.427179
 5.74457	0.427185
 5.74857	0.42719
 5.75258	0.427196
 5.75658	0.427201
 5.76058	0.427207
 5.76458	0.427213
 5.76858	0.427218
 5.77258	0.427224
 5.77658	0.427229
 5.78058	0.427235
 5.78458	0.42724
 5.78858	0.427246
 5.79258	0.427252
 5.79658	0.427257
 5.80058	0.427263
 5.80458	0.427268
 5.80858	0.427274
 5.81258	0.427279
 5.81658	0.427285
 5.82058	0.427291
 5.82458	0.427296
 5.82858	0.427302
 5.83258	0.427307
 5.83658	0.427313
 5.84058	0.427318
 5.84458	0.427324
 5.84858	0.42733
 5.85259	0.427335
 5.85659	0.427341
 5.86059	0.427346
 5.86459	0.427352
 5.86859	0.427357
 5.87259	0.427363
 5.87659	0.427368
 5.88059	0.427374
 5.88459	0.42738
 5.88859	0.427385
 5.89259	0.427391
 5.89659	0.427396
 5.90059	0.427402
 5.90459	0.427407
 5.90859	0.427413
 5.91259	0.427419
 5.91659	0.427424
 5.92059	0.42743
 5.92459	0.427435
 5.92859	0.427441
 5.93259	0.427446
 5.93659	0.427452
 5.94059	0.427458
 5.94459	0.427463
 5.94859	0.427469
 5.9526	0.427474
 5.9566	0.42748
 5.9606	0.427485
 5.9646	0.427491
 5.9686	0.427496
 5.9726	0.427502
 5.9766	0.427508
 5.9806	0.427513
 5.9846	0.427519
 5.9886	0.427524
 5.9926	0.42753
 5.9966	0.427535
 6.0006	0.427541
 6.0046	0.427544
 6.0086	0.427546
 6.0126	0.427549
 6.0166	0.427552
 6.0206	0.427555
 6.0246	0.427558
 6.0286	0.427561
 6.0326	0.427564
 6.0366	0.427567
 6.0406	0.42757
 6.0446	0.427573
 6.0486	0.427575
 6.05261	0.427578
 6.05661	0.427581
 6.06061	0.427584
 6.06461	0.427587
 6.06861	0.42759
 6.07261	0.427593
 6.07661	0.427596
 6.08061	0.427599
 6.08461	0.427602
 6.08861	0.427605
 6.09261	0.427607
 6.09661	0.42761
 6.10061	0.427613
 6.10461	0.427616
 6.10861	0.427619
 6.11261	0.427622
 6.11661	0.427625
 6.12061	0.427628
 6.12461	0.427631
 6.12861	0.427634
 6.13261	0.427636
 6.13661	0.427639
 6.14061	0.427642
 6.14461	0.427645
 6.14861	0.427648
 6.15262	0.427651
 6.15662	0.427654
 6.16062	0.427657
 6.16462	0.42766
 6.16862	0.427663
 6.17262	0.427665
 6.17662	0.427668
 6.18062	0.427671
 6.18462	0.427674
 6.18862	0.427677
 6.19262	0.42768
 6.19662	0.427683
 6.20062	0.427686
 6.20462	0.427689
 6.20862	0.427692
 6.21262	0.427695
 6.21662	0.427697
 6.22062	0.4277
 6.22462	0.427703
 6.22862	0.427706
 6.23262	0.427709
 6.23662	0.427712
 6.24062	0.427715
 6.24462	0.427718
 6.24862	0.427721
 6.25263	0.427724
 6.25663	0.427726
 6.26063	0.427729
 6.26463	0.427732
 6.26863	0.427735
 6.27263	0.427738
 6.27663	0.427741
 6.28063	0.427744
 6.28463	0.427747
 6.28863	0.42775
 6.29263	0.427753
 6.29663	0.427756
 6.30063	0.427758
 6.30463	0.427761
 6.30863	0.427764
 6.31263	0.427767
 6.31663	0.42777
 6.32063	0.427773
 6.32463	0.427776
 6.32863	0.427779
 6.33263	0.427782
 6.33663	0.427785
 6.34063	0.427787
 6.34463	0.42779
 6.34863	0.427793
 6.35264	0.427796
 6.35664	0.427799
 6.36064	0.427802
 6.36464	0.427805
 6.36864	0.427808
 6.37264	0.427811
 6.37664	0.427814
 6.38064	0.427816
 6.38464	0.427819
 6.38864	0.427822
 6.39264	0.427825
 6.39664	0.427828
 6.40064	0.427831
 6.40464	0.427834
 6.40864	0.427837
 6.41264	0.42784
 6.41664	0.427843
 6.42064	0.427846
 6.42464	0.427848
 6.42864	0.427851
 6.43264	0.427854
 6.43664	0.427857
 6.44064	0.42786
 6.44464	0.427863
 6.44864	0.427866
 6.45265	0.427869
 6.45665	0.427872
 6.46065	0.427875
 6.46465	0.427877
 6.46865	0.42788
 6.47265	0.427883
 6.47665	0.427886
 6.48065	0.427889
 6.48465	0.427892
 6.48865	0.427895
 6.49265	0.427898
 6.49665	0.427901
 6.50065	0.427904
 6.50465	0.427907
 6.50865	0.427909
 6.51265	0.427912
 6.51665	0.427915
 6.52065	0.427918
 6.52465	0.427921
 6.52865	0.427924
 6.53265	0.427927
 6.53665	0.42793
 6.54065	0.427933
 6.54465	0.427936
 6.54865	0.427938
 6.55266	0.427941
 6.55666	0.427944
 6.56066	0.427947
 6.56466	0.42795
 6.56866	0.427953
 6.57266	0.427956
 6.57666	0.427959
 6.58066	0.427962
 6.58466	0.427965
 6.58866	0.427967
 6.59266	0.42797
 6.59666	0.427973
 6.60066	0.427976
 6.60466	0.427979
 6.60866	0.427982
 6.61266	0.427985
 6.61666	0.427988
 6.62066	0.427991
 6.62466	0.427994
 6.62866	0.427997
 6.63266	0.427999
 6.63666	0.428002
 6.64066	0.428005
 6.64466	0.428008
 6.64866	0.428011
 6.65267	0.428014
 6.65667	0.428017
 6.66067	0.42802
 6.66467	0.428023
 6.66867	0.428026
 6.67267	0.428028
 6.67667	0.428031
 6.68067	0.428034
 6.68467	0.428037
 6.68867	0.42804
 6.69267	0.428043
 6.69667	0.428046
 6.70067	0.428049
 6.70467	0.428052
 6.70867	0.428055
 6.71267	0.428058
 6.71667	0.42806
 6.72067	0.428063
 6.72467	0.428066
 6.72867	0.428069
 6.73267	0.428072
 6.73667	0.428075
 6.74067	0.428078
 6.74467	0.428081
 6.74867	0.428084
 6.75268	0.428087
 6.75668	0.428089
 6.76068	0.428092
 6.76468	0.428095
 6.76868	0.428098
 6.77268	0.428101
 6.77668	0.428104
 6.78068	0.428107
 6.78468	0.42811
 6.78868	0.428113
 6.79268	0.428116
 6.79668	0.428118
 6.80068	0.428121
 6.80468	0.428124
 6.80868	0.428127
 6.81268	0.42813
 6.81668	0.428133
 6.82068	0.428136
 6.82468	0.428139
 6.82868	0.428142
 6.83268	0.428145
 6.83668	0.428148
 6.84068	0.42815
 6.84468	0.428153
 6.84868	0.428156
 6.85269	0.428159
 6.85669	0.428162
 6.86069	0.428165
 6.86469	0.428168
 6.86869	0.428171
 6.87269	0.428174
 6.87669	0.428177
 6.88069	0.428179
 6.88469	0.428182
 6.88869	0.428185
 6.89269	0.428188
 6.89669	0.428191
 6.90069	0.428194
 6.90469	0.428197
 6.90869	0.4282
 6.91269	0.428203
 6.91669	0.428206
 6.92069	0.428209
 6.92469	0.428211
 6.92869	0.428214
 6.93269	0.428217
 6.93669	0.42822
 6.94069	0.428223
 6.94469	0.428226
 6.94869	0.428229
 6.9527	0.428232
 6.9567	0.428235
 6.9607	0.428238
 6.9647	0.42824
 6.9687	0.428243
 6.9727	0.428246
 6.9767	0.428249
 6.9807	0.428252
 6.9847	0.428255
 6.9887	0.428258
 6.9927	0.428261
 6.9967	0.428264
 7.0007	0.428266
 7.0047	0.428267
 7.0087	0.428268
 7.0127	0.428269
 7.0167	0.42827
 7.0207	0.428271
 7.0247	0.428272
 7.0287	0.428272
 7.0327	0.428273
 7.0367	0.428274
 7.0407	0.428275
 7.0447	0.428276
 7.0487	0.428277
 7.05271	0.428278
 7.05671	0.428279
 7.06071	0.42828
 7.06471	0.42828
 7.06871	0.428281
 7.07271	0.428282
 7.07671	0.428283
 7.08071	0.428284
 7.08471	0.428285
 7.08871	0.428286
 7.09271	0.428287
 7.09671	0.428288
 7.10071	0.428288
 7.10471	0.428289
 7.10871	0.42829
 7.11271	0.428291
 7.11671	0.428292
 7.12071	0.428293
 7.12471	0.428294
 7.12871	0.428295
 7.13271	0.428296
 7.13671	0.428296
 7.14071	0.428297
 7.14471	0.428298
 7.14871	0.428299
 7.15272	0.4283
 7.15672	0.428301
 7.16072	0.428302
 7.16472	0.428303
 7.16872	0.428304
 7.17272	0.428304
 7.17672	0.428305
 7.18072	0.428306
 7.18472	0.428307
 7.18872	0.428308
 7.19272	0.428309
 7.19672	0.42831
 7.20072	0.428311
 7.20472	0.428311
 7.20872	0.428312
 7.21272	0.428313
 7.21672	0.428314
 7.22072	0.428315
 7.22472	0.428316
 7.22872	0.428317
 7.23272	0.428318
 7.23672	0.428319
 7.24072	0.428319
 7.24472	0.42832
 7.24872	0.428321
 7.25273	0.428322
 7.25673	0.428323
 7.26073	0.428324
 7.26473	0.428325
 7.26873	0.428326
 7.27273	0.428327
 7.27673	0.428327
 7.28073	0.428328
 7.28473	0.428329
 7.28873	0.42833
 7.29273	0.428331
 7.29673	0.428332
 7.30073	0.428333
 7.30473	0.428334
 7.30873	0.428335
 7.31273	0.428335
 7.31673	0.428336
 7.32073	0.428337
 7.32473	0.428338
 7.32873	0.428339
 7.33273	0.42834
 7.33673	0.428341
 7.34073	0.428342
 7.34473	0.428343
 7.34873	0.428343
 7.35274	0.428344
 7.35674	0.428345
 7.36074	0.428346
 7.36474	0.428347
 7.36874	0.428348
 7.37274	0.428349
 7.37674	0.42835
 7.38074	0.428351
 7.38474	0.428351
 7.38874	0.428352
 7.39274	0.428353
 7.39674	0.428354
 7.40074	0.428355
 7.40474	0.428356
 7.40874	0.428357
 7.41274	0.428358
 7.41674	0.428359
 7.42074	0.428359
 7.42474	0.42836
 7.42874	0.428361
 7.43274	0.428362
 7.43674	0.428363
 7.44074	0.428364
 7.44474	0.428365
 7.44874	0.428366
 7.45275	0.428367
 7.45675	0.428367
 7.46075	0.428368
 7.46475	0.428369
 7.46875	0.42837
 7.47275	0.428371
 7.47675	0.428372
 7.48075	0.428373
 7.48475	0.428374
 7.48875	0.428374
 7.49275	0.428375
 7.49675	0.428376
 7.50075	0.428377
 7.50475	0.428378
 7.50875	0.428379
 7.51275	0.42838
 7.51675	0.428381
 7.52075	0.428382
 7.52475	0.428382
 7.52875	0.428383
 7.53275	0.428384
 7.53675	0.428385
 7.54075	0.428386
 7.54475	0.428387
 7.54875	0.428388
 7.55276	0.428389
 7.55676	0.42839
 7.56076	0.42839
 7.56476	0.428391
 7.56876	0.428392
 7.57276	0.428393
 7.57676	0.428394
 7.58076	0.428395
 7.58476	0.428396
 7.58876	0.428397
 7.59276	0.428398
 7.59676	0.428398
 7.60076	0.428399
 7.60476	0.4284
 7.60876	0.428401
 7.61276	0.428402
 7.61676	0.428403
 7.62076	0.428404
 7.62476	0.428405
 7.62876	0.428406
 7.63276	0.428406
 7.63676	0.428407
 7.64076	0.428408
 7.64476	0.428409
 7.64876	0.42841
 7.65277	0.428411
 7.65677	0.428412
 7.66077	0.428413
 7.66477	0.428414
 7.66877	0.428414
 7.67277	0.428415
 7.67677	0.428416
 7.68077	0.428417
 7.68477	0.428418
 7.68877	0.428419
 7.69277	0.42842
 7.69677	0.428421
 7.70077	0.428422
 7.70477	0.428422
 7.70877	0.428423
 7.71277	0.428424
 7.71677	0.428425
 7.72077	0.428426
 7.72477	0.428427
 7.72877	0.428428
 7.73277	0.428429
 7.73677	0.42843
 7.74077	0.42843
 7.74477	0.428431
 7.74877	0.428432
 7.75278	0.428433
 7.75678	0.428434
 7.76078	0.428435
 7.76478	0.428436
 7.76878	0.428437
 7.77278	0.428437
 7.77678	0.428438
 7.78078	0.428439
 7.78478	0.42844
 7.78878	0.428441
 7.79278	0.428442
 7.79678	0.428443
 7.80078	0.428444
 7.80478	0.428445
 7.80878	0.428445
 7.81278	0.428446
 7.81678	0.428447
 7.82078	0.428448
 7.82478	0.428449
 7.82878	0.42845
 7.83278	0.428451
 7.83678	0.428452
 7.84078	0.428453
 7.84478	0.428453
 7.84878	0.428454
 7.85279	0.428455
 7.85679	0.428456
 7.86079	0.428457
 7.86479	0.428458
 7.86879	0.428459
 7.87279	0.42846
 7.87679	0.428461
 7.88079	0.428461
 7.88479	0.428462
 7.88879	0.428463
 7.89279	0.428464
 7.89679	0.428465
 7.90079	0.428466
 7.90479	0.428467
 7.90879	0.428468
 7.91279	0.428469
 7.91679	0.428469
 7.92079	0.42847
 7.92479	0.428471
 7.92879	0.428472
 7.93279	0.428473
 7.93679	0.428474
 7.94079	0.428475
 7.94479	0.428476
 7.94879	0.428477
 7.9528	0.428477
 7.9568	0.428478
 7.9608	0.428479
 7.9648	0.42848
 7.9688	0.428481
 7.9728	0.428482
 7.9768	0.428483
 7.9808	0.428484
 7.9848	0.428485
 7.9888	0.428485
 7.9928	0.428486
 7.9968	0.428487
 8.0008	0.428488
 8.0048	0.428488
 8.0088	0.428489
 8.0128	0.428489
 8.0168	0.42849
 8.0208	0.42849
 8.0248	0.428491
 8.0288	0.428491
 8.0328	0.428492
 8.0368	0.428492
 8.0408	0.428492
 8.0448	0.428493
 8.0488	0.428493
 8.05281	0.428494
 8.05681	0.428494
 8.06081	0.428495
 8.06481	0.428495
 8.06881	0.428496
 8.07281	0.428496
 8.07681	0.428496
 8.08081	0.428497
 8.08481	0.428497
 8.08881	0.428498
 8.09281	0.428498
 8.09681	0.428499
 8.10081	0.428499
 8.10481	0.4285
 8.10881	0.4285
 8.11281	0.4285
 8.11681	0.428501
 8.12081	0.428501
 8.12481	0.428502
 8.12881	0.428502
 8.13281	0.428503
 8.13681	0.428503
 8.14081	0.428504
 8.14481	0.428504
 8.14881	0.428504
 8.15282	0.428505
 8.15682	0.428505
 8.16082	0.428506
 8.16482	0.428506
 8.16882	0.428507
 8.17282	0.428507
 8.17682	0.428508
 8.18082	0.428508
 8.18482	0.428508
 8.18882	0.428509
 8.19282	0.428509
 8.19682	0.42851
 8.20082	0.42851
 8.20482	0.428511
 8.20882	0.428511
 8.21282	0.428511
 8.21682	0.428512
 8.22082	0.428512
 8.22482	0.428513
 8.22882	0.428513
 8.23282	0.428514
 8.23682	0.428514
 8.24082	0.428515
 8.24482	0.428515
 8.24882	0.428515
 8.25283	0.428516
 8.25683	0.428516
 8.26083	0.428517
 8.26483	0.428517
 8.26883	0.428518
 8.27283	0.428518
 8.27683	0.428519
 8.28083	0.428519
 8.28483	0.428519
 8.28883	0.42852
 8.29283	0.42852
 8.29683	0.428521
 8.30083	0.428521
 8.30483	0.428522
 8.30883	0.428522
 8.31283	0.428523
 8.31683	0.428523
 8.32083	0.428523
 8.32483	0.428524
 8.32883	0.428524
 8.33283	0.428525
 8.33683	0.428525
 8.34083	0.428526
 8.34483	0.428526
 8.34883	0.428527
 8.35284	0.428527
 8.35684	0.428527
 8.36084	0.428528
 8.36484	0.428528
 8.36884	0.428529
 8.37284	0.428529
 8.37684	0.42853
 8.38084	0.42853
 8.38484	0.428531
 8.38884	0.428531
 8.39284	0.428531
 8.39684	0.428532
 8.40084	0.428532
 8.40484	0.428533
 8.40884	0.428533
 8.41284	0.428534
 8.41684	0.428534
 8.42084	0.428535
 8.42484	0.428535
 8.42884	0.428535
 8.43284	0.428536
 8.43684	0.428536
 8.44084	0.428537
 8.44484	0.428537
 8.44884	0.428538
 8.45285	0.428538
 8.45685	0.428539
 8.46085	0.428539
 8.46485	0.428539
 8.46885	0.42854
 8.47285	0.42854
 8.47685	0.428541
 8.48085	0.428541
 8.48485	0.428542
 8.48885	0.428542
 8.49285	0.428543
 8.49685	0.428543
 8.50085	0.428543
 8.50485	0.428544
 8.50885	0.428544
 8.51285	0.428545
 8.51685	0.428545
 8.52085	0.428546
 8.52485	0.428546
 8.52885	0.428547
 8.53285	0.428547
 8.53685	0.428547
 8.54085	0.428548
 8.54485	0.428548
 8.54885	0.428549
 8.55286	0.428549
 8.55686	0.42855
 8.56086	0.42855
 8.56486	0.428551
 8.56886	0.428551
 8.57286	0.428551
 8.57686	0.428552
 8.58086	0.428552
 8.58486	0.428553
 8.58886	0.428553
 8.59286	0.428554
 8.59686	0.428554
 8.60086	0.428555
 8.60486	0.428555
 8.60886	0.428555
 8.61286	0.428556
 8.61686	0.428556
 8.62086	0.428557
 8.62486	0.428557
 8.62886	0.428558
 8.63286	0.428558
 8.63686	0.428559
 8.64086	0.428559
 8.64486	0.428559
 8.64886	0.42856
 8.65287	0.42856
 8.65687	0.428561
 8.66087	0.428561
 8.66487	0.428562
 8.66887	0.428562
 8.67287	0.428563
 8.67687	0.428563
 8.68087	0.428563
 8.68487	0.428564
 8.68887	0.428564
 8.69287	0.428565
 8.69687	0.428565
 8.70087	0.428566
 8.70487	0.428566
 8.70887	0.428567
 8.71287	0.428567
 8.71687	0.428567
 8.72087	0.428568
 8.72487	0.428568
 8.72887	0.428569
 8.73287	0.428569
 8.73687	0.42857
 8.74087	0.42857
 8.74487	0.42857
 8.74887	0.428571
 8.75288	0.428571
 8.75688	0.428572
 8.76088	0.428572
 8.76488	0.428573
 8.76888	0.428573
 8.77288	0.428574
 8.77688	0.428574
 8.78088	0.428574
 8.78488	0.428575
 8.78888	0.428575
 8.79288	0.428576
 8.79688	0.428576
 8.80088	0.428577
 8.80488	0.428577
 8.80888	0.428578
 8.81288	0.428578
 8.81688	0.428578
 8.82088	0.428579
 8.82488	0.428579
 8.82888	0.42858
 8.83288	0.42858
 8.83688	0.428581
 8.84088	0.428581
 8.84488	0.428582
 8.84888	0.428582
 8.85289	0.428582
 8.85689	0.428583
 8.86089	0.428583
 8.86489	0.428584
 8.86889	0.428584
 8.87289	0.428585
 8.87689	0.428585
 8.88089	0.428586
 8.88489	0.428586
 8.88889	0.428586
 8.89289	0.428587
 8.89689	0.428587
 8.90089	0.428588
 8.90489	0.428588
 8.90889	0.428589
 8.91289	0.428589
 8.91689	0.42859
 8.92089	0.42859
 8.92489	0.42859
 8.92889	0.428591
 8.93289	0.428591
 8.93689	0.428592
 8.94089	0.428592
 8.94489	0.428593
 8.94889	0.428593
 8.9529	0.428594
 8.9569	0.428594
 8.9609	0.428594
 8.9649	0.428595
 8.9689	0.428595
 8.9729	0.428596
 8.9769	0.428596
 8.9809	0.428597
 8.9849	0.428597
 8.9889	0.428598
 8.9929	0.428598
 8.9969	0.428598
 9.0009	0.428599
 9.0049	0.428599
 9.0089	0.428599
 9.0129	0.4286
 9.0169	0.4286
 9.0209	0.4286
 9.0249	0.428601
 9.0289	0.428601
 9.0329	0.428601
 9.0369	0.428601
 9.0409	0.428602
 9.0449	0.428602
 9.0489	0.428602
 9.05291	0.428603
 9.05691	0.428603
 9.06091	0.428603
 9.06491	0.428603
 9.06891	0.428604
 9.07291	0.428604
 9.07691	0.428604
 9.08091	0.428605
 9.08491	0.428605
 9.08891	0.428605
 9.09291	0.428605
 9.09691	0.428606
 9.10091	0.428606
 9.10491	0.428606
 9.10891	0.428606
 9.11291	0.428607
 9.11691	0.428607
 9.12091	0.428607
 9.12491	0.428608
 9.12891	0.428608
 9.13291	0.428608
 9.13691	0.428608
 9.14091	0.428609
 9.14491	0.428609
 9.14891	0.428609
 9.15292	0.42861
 9.15692	0.42861
 9.16092	0.42861
 9.16492	0.42861
 9.16892	0.428611
 9.17292	0.428611
 9.17692	0.428611
 9.18092	0.428612
 9.18492	0.428612
 9.18892	0.428612
 9.19292	0.428612
 9.19692	0.428613
 9.20092	0.428613
 9.20492	0.428613
 9.20892	0.428614
 9.21292	0.428614
 9.21692	0.428614
 9.22092	0.428614
 9.22492	0.428615
 9.22892	0.428615
 9.23292	0.428615
 9.23692	0.428616
 9.24092	0.428616
 9.24492	0.428616
 9.24892	0.428616
 9.25293	0.428617
 9.25693	0.428617
 9.26093	0.428617
 9.26493	0.428617
 9.26893	0.428618
 9.27293	0.428618
 9.27693	0.428618
 9.28093	0.428619
 9.28493	0.428619
 9.28893	0.428619
 9.29293	0.428619
 9.29693	0.42862
 9.30093	0.42862
 9.30493	0.42862
 9.30893	0.428621
 9.31293	0.428621
 9.31693	0.428621
 9.32093	0.428621
 9.32493	0.428622
 9.32893	0.428622
 9.33293	0.428622
 9.33693	0.428623
 9.34093	0.428623
 9.34493	0.428623
 9.34893	0.428623
 9.35294	0.428624
 9.35694	0.428624
 9.36094	0.428624
 9.36494	0.428625
 9.36894	0.428625
 9.37294	0.428625
 9.37694	0.428625
 9.38094	0.428626
 9.38494	0.428626
 9.38894	0.428626
 9.39294	0.428627
 9.39694	0.428627
 9.40094	0.428627
 9.40494	0.428627
 9.40894	0.428628
 9.41294	0.428628
 9.41694	0.428628
 9.42094	0.428628
 9.42494	0.428629
 9.42894	0.428629
 9.43294	0.428629
 9.43694	0.42863
 9.44094	0.42863
 9.44494	0.42863
 9.44894	0.42863
 9.45295	0.428631
 9.45695	0.428631
 9.46095	0.428631
 9.46495	0.428632
 9.46895	0.428632
 9.47295	0.428632
 9.47695	0.428632
 9.48095	0.428633
 9.48495	0.428633
 9.48895	0.428633
 9.49295	0.428634
 9.49695	0.428634
 9.50095	0.428634
 9.50495	0.428634
 9.50895	0.428635
 9.51295	0.428635
 9.51695	0.428635
 9.52095	0.428636
 9.52495	0.428636
 9.52895	0.428636
 9.53295	0.428636
 9.53695	0.428637
 9.54095	0.428637
 9.54495	0.428637
 9.54895	0.428638
 9.55296	0.428638
 9.55696	0.428638
 9.56096	0.428638
 9.56496	0.428639
 9.56896	0.428639
 9.57296	0.428639
 9.57696	0.42864
 9.58096	0.42864
 9.58496	0.42864
 9.58896	0.42864
 9.59296	0.428641
 9.59696	0.428641
 9.60096	0.428641
 9.60496	0.428641
 9.60896	0.428642
 9.61296	0.428642
 9.61696	0.428642
 9.62096	0.428643
 9.62496	0.428643
 9.62896	0.428643
 9.63296	0.428643
 9.63696	0.428644
 9.64096	0.428644
 9.64496	0.428644
 9.64896	0.428645
 9.65297	0.428645
 9.65697	0.428645
 9.66097	0.428645
 9.66497	0.428646
 9.66897	0.428646
 9.67297	0.428646
 9.67697	0.428647
 9.68097	0.428647
 9.68497	0.428647
 9.68897	0.428647
 9.69297	0.428648
 9.69697	0.428648
 9.70097	0.428648
 9.70497	0.428649
 9.70897	0.428649
 9.71297	0.428649
 9.71697	0.428649
 9.72097	0.42865
 9.72497	0.42865
 9.72897	0.42865
 9.73297	0.428651
 9.73697	0.428651
 9.74097	0.428651
 9.74497	0.428651
 9.74897	0.428652
 9.75298	0.428652
 9.75698	0.428652
 9.76098	0.428652
 9.76498	0.428653
 9.76898	0.428653
 9.77298	0.428653
 9.77698	0.428654
 9.78098	0.428654
 9.78498	0.428654
 9.78898	0.428654
 9.79298	0.428655
 9.79698	0.428655
 9.80098	0.428655
 9.80498	0.428656
 9.80898	0.428656
 9.81298	0.428656
 9.81698	0.428656
 9.82098	0.428657
 9.82498	0.428657
 9.82898	0.428657
 9.83298	0.428658
 9.83698	0.428658
 9.84098	0.428658
 9.84498	0.428658
 9.84898	0.428659
 9.85299	0.428659
 9.85699	0.428659
 9.86099	0.42866
 9.86499	0.42866
 9.86899	0.42866
 9.87299	0.42866
 9.87699	0.428661
 9.88099	0.428661
 9.88499	0.428661
 9.88899	0.428662
 9.89299	0.428662
 9.89699	0.428662
 9.90099	0.428662
 9.90499	0.428663
 9.90899	0.428663
 9.91299	0.428663
 9.91699	0.428664
 9.92099	0.428664
 9.92499	0.428664
 9.92899	0.428664
 9.93299	0.428665
 9.93699	0.428665
 9.94099	0.428665
 9.94499	0.428665
 9.94899	0.428666
 9.953	0.428666
 9.957	0.428666
 9.961	0.428667
 9.965	0.428667
 9.969	0.428667
 9.973	0.428667
 9.977	0.428668
 9.981	0.428668
 9.985	0.428668
 9.989	0.428669
 9.993	0.428669
 9.997	0.428669
 10.001	0.428669
 10.005	0.42867
 10.009	0.42867
 10.013	0.42867
 10.017	0.428671
 10.021	0.428671
 10.025	0.428671
 10.029	0.428671
 10.033	0.428672
 10.037	0.428672
 10.041	0.428672
 10.045	0.428673
 10.049	0.428673
 10.053	0.428673
 10.057	0.428673
 10.061	0.428674
 10.065	0.428674
 10.069	0.428674
 10.073	0.428675
 10.077	0.428675
 10.081	0.428675
 10.085	0.428675
 10.089	0.428676
 10.093	0.428676
 10.097	0.428676
 10.101	0.428676
 10.105	0.428677
 10.109	0.428677
 10.113	0.428677
 10.117	0.428678
 10.121	0.428678
 10.125	0.428678
 10.129	0.428678
 10.133	0.428679
 10.137	0.428679
 10.141	0.428679
 10.145	0.42868
 10.149	0.42868
 10.153	0.42868
 10.157	0.42868
 10.161	0.428681
 10.165	0.428681
 10.169	0.428681
 10.173	0.428682
 10.177	0.428682
 10.181	0.428682
 10.185	0.428682
 10.189	0.428683
 10.193	0.428683
 10.197	0.428683
 10.201	0.428684
 10.205	0.428684
 10.209	0.428684
 10.213	0.428684
 10.217	0.428685
 10.221	0.428685
 10.225	0.428685
 10.229	0.428686
 10.233	0.428686
 10.237	0.428686
 10.241	0.428686
 10.245	0.428687
 10.249	0.428687
 10.253	0.428687
 10.257	0.428688
 10.261	0.428688
 10.265	0.428688
 10.269	0.428688
 10.273	0.428689
 10.277	0.428689
 10.281	0.428689
 10.285	0.428689
 10.289	0.42869
 10.293	0.42869
 10.297	0.42869
 10.301	0.428691
 10.305	0.428691
 10.309	0.428691
 10.313	0.428691
 10.317	0.428692
 10.321	0.428692
 10.325	0.428692
 10.329	0.428693
 10.333	0.428693
 10.337	0.428693
 10.341	0.428693
 10.345	0.428694
 10.349	0.428694
 10.353	0.428694
 10.357	0.428695
 10.361	0.428695
 10.365	0.428695
 10.369	0.428695
 10.373	0.428696
 10.377	0.428696
 10.381	0.428696
 10.385	0.428697
 10.389	0.428697
 10.393	0.428697
 10.397	0.428697
 10.401	0.428698
 10.405	0.428698
 10.409	0.428698
 10.413	0.428699
 10.417	0.428699
 10.421	0.428699
 10.425	0.428699
 10.429	0.4287
 10.433	0.4287
 10.437	0.4287
 10.441	0.4287
 10.445	0.428701
 10.449	0.428701
 10.453	0.428701
 10.457	0.428702
 10.461	0.428702
 10.465	0.428702
 10.469	0.428702
 10.473	0.428703
 10.477	0.428703
 10.481	0.428703
 10.485	0.428704
 10.489	0.428704
 10.493	0.428704
 10.497	0.428704
 10.5011	0.428705
 10.5051	0.428705
 10.5091	0.428705
 10.5131	0.428706
 10.5171	0.428706
 10.5211	0.428706
 10.5251	0.428706
 10.5291	0.428707
 10.5331	0.428707
 10.5371	0.428707
 10.5411	0.428708
 10.5451	0.428708
 10.5491	0.428708
 10.5531	0.428708
 10.5571	0.428709
 10.5611	0.428709
 10.5651	0.428709
 10.5691	0.42871
 10.5731	0.42871
 10.5771	0.42871
 10.5811	0.42871
 10.5851	0.428711
 10.5891	0.428711
 10.5931	0.428711
 10.5971	0.428711
 10.6011	0.428712
 10.6051	0.428712
 10.6091	0.428712
 10.6131	0.428713
 10.6171	0.428713
 10.6211	0.428713
 10.6251	0.428713
 10.6291	0.428714
 10.6331	0.428714
 10.6371	0.428714
 10.6411	0.428715
 10.6451	0.428715
 10.6491	0.428715
 10.6531	0.428715
 10.6571	0.428716
 10.6611	0.428716
 10.6651	0.428716
 10.6691	0.428717
 10.6731	0.428717
 10.6771	0.428717
 10.6811	0.428717
 10.6851	0.428718
 10.6891	0.428718
 10.6931	0.428718
 10.6971	0.428719
 10.7011	0.428719
 10.7051	0.428719
 10.7091	0.428719
 10.7131	0.42872
 10.7171	0.42872
 10.7211	0.42872
 10.7251	0.428721
 10.7291	0.428721
 10.7331	0.428721
 10.7371	0.428721
 10.7411	0.428722
 10.7451	0.428722
 10.7491	0.428722
 10.7531	0.428723
 10.7571	0.428723
 10.7611	0.428723
 10.7651	0.428723
 10.7691	0.428724
 10.7731	0.428724
 10.7771	0.428724
 10.7811	0.428724
 10.7851	0.428725
 10.7891	0.428725
 10.7931	0.428725
 10.7971	0.428726
 10.8011	0.428726
 10.8051	0.428726
 10.8091	0.428726
 10.8131	0.428727
 10.8171	0.428727
 10.8211	0.428727
 10.8251	0.428728
 10.8291	0.428728
 10.8331	0.428728
 10.8371	0.428728
 10.8411	0.428729
 10.8451	0.428729
 10.8491	0.428729
 10.8531	0.42873
 10.8571	0.42873
 10.8611	0.42873
 10.8651	0.42873
 10.8691	0.428731
 10.8731	0.428731
 10.8771	0.428731
 10.8811	0.428732
 10.8851	0.428732
 10.8891	0.428732
 10.8931	0.428732
 10.8971	0.428733
 10.9011	0.428733
 10.9051	0.428733
 10.9091	0.428734
 10.9131	0.428734
 10.9171	0.428734
 10.9211	0.428734
 10.9251	0.428735
 10.9291	0.428735
 10.9331	0.428735
 10.9371	0.428735
 10.9411	0.428736
 10.9451	0.428736
 10.9491	0.428736
 10.9531	0.428737
 10.9571	0.428737
 10.9611	0.428737
 10.9651	0.428737
 10.9691	0.428738
 10.9731	0.428738
 10.9771	0.428738
 10.9811	0.428739
 10.9851	0.428739
 10.9891	0.428739
 10.9931	0.428739
 10.9971	0.42874
 11.0011	0.42874
 11.0051	0.42874
 11.0091	0.428741
 11.0131	0.428741
 11.0171	0.428741
 11.0211	0.428742
 11.0251	0.428742
 11.0291	0.428742
 11.0331	0.428743
 11.0371	0.428743
 11.0411	0.428743
 11.0451	0.428744
 11.0491	0.428744
 11.0531	0.428744
 11.0571	0.428745
 11.0611	0.428745
 11.0651	0.428745
 11.0691	0.428746
 11.0731	0.428746
 11.0771	0.428746
 11.0811	0.428746
 11.0851	0.428747
 11.0891	0.428747
 11.0931	0.428747
 11.0971	0.428748
 11.1011	0.428748
 11.1051	0.428748
 11.1091	0.428749
 11.1131	0.428749
 11.1171	0.428749
 11.1211	0.42875
 11.1251	0.42875
 11.1291	0.42875
 11.1331	0.428751
 11.1371	0.428751
 11.1411	0.428751
 11.1451	0.428752
 11.1491	0.428752
 11.1531	0.428752
 11.1571	0.428753
 11.1611	0.428753
 11.1651	0.428753
 11.1691	0.428754
 11.1731	0.428754
 11.1771	0.428754
 11.1811	0.428755
 11.1851	0.428755
 11.1891	0.428755
 11.1931	0.428756
 11.1971	0.428756
 11.2011	0.428756
 11.2051	0.428756
 11.2091	0.428757
 11.2131	0.428757
 11.2171	0.428757
 11.2211	0.428758
 11.2251	0.428758
 11.2291	0.428758
 11.2331	0.428759
 11.2371	0.428759
 11.2411	0.428759
 11.2451	0.42876
 11.2491	0.42876
 11.2531	0.42876
 11.2571	0.428761
 11.2611	0.428761
 11.2651	0.428761
 11.2691	0.428762
 11.2731	0.428762
 11.2771	0.428762
 11.2811	0.428763
 11.2851	0.428763
 11.2891	0.428763
 11.2931	0.428764
 11.2971	0.428764
 11.3011	0.428764
 11.3051	0.428765
 11.3091	0.428765
 11.3131	0.428765
 11.3171	0.428766
 11.3211	0.428766
 11.3251	0.428766
 11.3291	0.428766
 11.3331	0.428767
 11.3371	0.428767
 11.3411	0.428767
 11.3451	0.428768
 11.3491	0.428768
 11.3531	0.428768
 11.3571	0.428769
 11.3611	0.428769
 11.3651	0.428769
 11.3691	0.42877
 11.3731	0.42877
 11.3771	0.42877
 11.3811	0.428771
 11.3851	0.428771
 11.3891	0.428771
 11.3931	0.428772
 11.3971	0.428772
 11.4011	0.428772
 11.4051	0.428773
 11.4091	0.428773
 11.4131	0.428773
 11.4171	0.428774
 11.4211	0.428774
 11.4251	0.428774
 11.4291	0.428775
 11.4331	0.428775
 11.4371	0.428775
 11.4411	0.428776
 11.4451	0.428776
 11.4491	0.428776
 11.4531	0.428776
 11.4571	0.428777
 11.4611	0.428777
 11.4651	0.428777
 11.4691	0.428778
 11.4731	0.428778
 11.4771	0.428778
 11.4811	0.428779
 11.4851	0.428779
 11.4891	0.428779
 11.4931	0.42878
 11.4971	0.42878
 11.5012	0.42878
 11.5052	0.428781
 11.5092	0.428781
 11.5132	0.428781
 11.5172	0.428782
 11.5212	0.428782
 11.5252	0.428782
 11.5292	0.428783
 11.5332	0.428783
 11.5372	0.428783
 11.5412	0.428784
 11.5452	0.428784
 11.5492	0.428784
 11.5532	0.428785
 11.5572	0.428785
 11.5612	0.428785
 11.5652	0.428786
 11.5692	0.428786
 11.5732	0.428786
 11.5772	0.428786
 11.5812	0.428787
 11.5852	0.428787
 11.5892	0.428787
 11.5932	0.428788
 11.5972	0.428788
 11.6012	0.428788
 11.6052	0.428789
 11.6092	0.428789
 11.6132	0.428789
 11.6172	0.42879
 11.6212	0.42879
 11.6252	0.42879
 11.6292	0.428791
 11.6332	0.428791
 11.6372	0.428791
 11.6412	0.428792
 11.6452	0.428792
 11.6492	0.428792
 11.6532	0.428793
 11.6572	0.428793
 11.6612	0.428793
 11.6652	0.428794
 11.6692	0.428794
 11.6732	0.428794
 11.6772	0.428795
 11.6812	0.428795
 11.6852	0.428795
 11.6892	0.428796
 11.6932	0.428796
 11.6972	0.428796
 11.7012	0.428797
 11.7052	0.428797
 11.7092	0.428797
 11.7132	0.428797
 11.7172	0.428798
 11.7212	0.428798
 11.7252	0.428798
 11.7292	0.428799
 11.7332	0.428799
 11.7372	0.428799
 11.7412	0.4288
 11.7452	0.4288
 11.7492	0.4288
 11.7532	0.428801
 11.7572	0.428801
 11.7612	0.428801
 11.7652	0.428802
 11.7692	0.428802
 11.7732	0.428802
 11.7772	0.428803
 11.7812	0.428803
 11.7852	0.428803
 11.7892	0.428804
 11.7932	0.428804
 11.7972	0.428804
 11.8012	0.428805
 11.8052	0.428805
 11.8092	0.428805
 11.8132	0.428806
 11.8172	0.428806
 11.8212	0.428806
 11.8252	0.428807
 11.8292	0.428807
 11.8332	0.428807
 11.8372	0.428807
 11.8412	0.428808
 11.8452	0.428808
 11.8492	0.428808
 11.8532	0.428809
 11.8572	0.428809
 11.8612	0.428809
 11.8652	0.42881
 11.8692	0.42881
 11.8732	0.42881
 11.8772	0.428811
 11.8812	0.428811
 11.8852	0.428811
 11.8892	0.428812
 11.8932	0.428812
 11.8972	0.428812
 11.9012	0.428813
 11.9052	0.428813
 11.9092	0.428813
 11.9132	0.428814
 11.9172	0.428814
 11.9212	0.428814
 11.9252	0.428815
 11.9292	0.428815
 11.9332	0.428815
 11.9372	0.428816
 11.9412	0.428816
 11.9452	0.428816
 11.9492	0.428817
 11.9532	0.428817
 11.9572	0.428817
 11.9612	0.428817
 11.9652	0.428818
 11.9692	0.428818
 11.9732	0.428818
 11.9772	0.428819
 11.9812	0.428819
 11.9852	0.428819
 11.9892	0.42882
 11.9932	0.42882
 11.9972	0.42882
 12.0012	0.428821
 12.0052	0.428821
 12.0092	0.428821
 12.0132	0.428821
 12.0172	0.428821
 12.0212	0.428821
 12.0252	0.428822
 12.0292	0.428822
 12.0332	0.428822
 12.0372	0.428822
 12.0412	0.428822
 12.0452	0.428822
 12.0492	0.428823
 12.0532	0.428823
 12.0572	0.428823
 12.0612	0.428823
 12.0652	0.428823
 12.0692	0.428823
 12.0732	0.428824
 12.0772	0.428824
 12.0812	0.428824
 12.0852	0.428824
 12.0892	0.428824
 12.0932	0.428824
 12.0972	0.428825
 12.1012	0.428825
 12.1052	0.428825
 12.1092	0.428825
 12.1132	0.428825
 12.1172	0.428825
 12.1212	0.428825
 12.1252	0.428826
 12.1292	0.428826
 12.1332	0.428826
 12.1372	0.428826
 12.1412	0.428826
 12.1452	0.428826
 12.1492	0.428827
 12.1532	0.428827
 12.1572	0.428827
 12.1612	0.428827
 12.1652	0.428827
 12.1692	0.428827
 12.1732	0.428828
 12.1772	0.428828
 12.1812	0.428828
 12.1852	0.428828
 12.1892	0.428828
 12.1932	0.428828
 12.1972	0.428829
 12.2012	0.428829
 12.2052	0.428829
 12.2092	0.428829
 12.2132	0.428829
 12.2172	0.428829
 12.2212	0.42883
 12.2252	0.42883
 12.2292	0.42883
 12.2332	0.42883
 12.2372	0.42883
 12.2412	0.42883
 12.2452	0.42883
 12.2492	0.428831
 12.2532	0.428831
 12.2572	0.428831
 12.2612	0.428831
 12.2652	0.428831
 12.2692	0.428831
 12.2732	0.428832
 12.2772	0.428832
 12.2812	0.428832
 12.2852	0.428832
 12.2892	0.428832
 12.2932	0.428832
 12.2972	0.428833
 12.3012	0.428833
 12.3052	0.428833
 12.3092	0.428833
 12.3132	0.428833
 12.3172	0.428833
 12.3212	0.428834
 12.3252	0.428834
 12.3292	0.428834
 12.3332	0.428834
 12.3372	0.428834
 12.3412	0.428834
 12.3452	0.428835
 12.3492	0.428835
 12.3532	0.428835
 12.3572	0.428835
 12.3612	0.428835
 12.3652	0.428835
 12.3692	0.428835
 12.3732	0.428836
 12.3772	0.428836
 12.3812	0.428836
 12.3852	0.428836
 12.3892	0.428836
 12.3932	0.428836
 12.3972	0.428837
 12.4012	0.428837
 12.4052	0.428837
 12.4092	0.428837
 12.4132	0.428837
 12.4172	0.428837
 12.4212	0.428838
 12.4252	0.428838
 12.4292	0.428838
 12.4332	0.428838
 12.4372	0.428838
 12.4412	0.428838
 12.4452	0.428839
 12.4492	0.428839
 12.4532	0.428839
 12.4572	0.428839
 12.4612	0.428839
 12.4652	0.428839
 12.4692	0.42884
 12.4732	0.42884
 12.4772	0.42884
 12.4812	0.42884
 12.4852	0.42884
 12.4892	0.42884
 12.4932	0.428841
 12.4972	0.428841
 12.5013	0.428841
 12.5053	0.428841
 12.5093	0.428841
 12.5133	0.428841
 12.5173	0.428841
 12.5213	0.428842
 12.5253	0.428842
 12.5293	0.428842
 12.5333	0.428842
 12.5373	0.428842
 12.5413	0.428842
 12.5453	0.428843
 12.5493	0.428843
 12.5533	0.428843
 12.5573	0.428843
 12.5613	0.428843
 12.5653	0.428843
 12.5693	0.428844
 12.5733	0.428844
 12.5773	0.428844
 12.5813	0.428844
 12.5853	0.428844
 12.5893	0.428844
 12.5933	0.428845
 12.5973	0.428845
 12.6013	0.428845
 12.6053	0.428845
 12.6093	0.428845
 12.6133	0.428845
 12.6173	0.428846
 12.6213	0.428846
 12.6253	0.428846
 12.6293	0.428846
 12.6333	0.428846
 12.6373	0.428846
 12.6413	0.428846
 12.6453	0.428847
 12.6493	0.428847
 12.6533	0.428847
 12.6573	0.428847
 12.6613	0.428847
 12.6653	0.428847
 12.6693	0.428848
 12.6733	0.428848
 12.6773	0.428848
 12.6813	0.428848
 12.6853	0.428848
 12.6893	0.428848
 12.6933	0.428849
 12.6973	0.428849
 12.7013	0.428849
 12.7053	0.428849
 12.7093	0.428849
 12.7133	0.428849
 12.7173	0.42885
 12.7213	0.42885
 12.7253	0.42885
 12.7293	0.42885
 12.7333	0.42885
 12.7373	0.42885
 12.7413	0.428851
 12.7453	0.428851
 12.7493	0.428851
 12.7533	0.428851
 12.7573	0.428851
 12.7613	0.428851
 12.7653	0.428851
 12.7693	0.428852
 12.7733	0.428852
 12.7773	0.428852
 12.7813	0.428852
 12.7853	0.428852
 12.7893	0.428852
 12.7933	0.428853
 12.7973	0.428853
 12.8013	0.428853
 12.8053	0.428853
 12.8093	0.428853
 12.8133	0.428853
 12.8173	0.428854
 12.8213	0.428854
 12.8253	0.428854
 12.8293	0.428854
 12.8333	0.428854
 12.8373	0.428854
 12.8413	0.428855
 12.8453	0.428855
 12.8493	0.428855
 12.8533	0.428855
 12.8573	0.428855
 12.8613	0.428855
 12.8653	0.428856
 12.8693	0.428856
 12.8733	0.428856
 12.8773	0.428856
 12.8813	0.428856
 12.8853	0.428856
 12.8893	0.428856
 12.8933	0.428857
 12.8973	0.428857
 12.9013	0.428857
 12.9053	0.428857
 12.9093	0.428857
 12.9133	0.428857
 12.9173	0.428858
 12.9213	0.428858
 12.9253	0.428858
 12.9293	0.428858
 12.9333	0.428858
 12.9373	0.428858
 12.9413	0.428859
 12.9453	0.428859
 12.9493	0.428859
 12.9533	0.428859
 12.9573	0.428859
 12.9613	0.428859
 12.9653	0.42886
 12.9693	0.42886
 12.9733	0.42886
 12.9773	0.42886
 12.9813	0.42886
 12.9853	0.42886
 12.9893	0.428861
 12.9933	0.428861
 12.9973	0.428861
 13.0013	0.428861
 13.0053	0.428861
 13.0093	0.428862
 13.0133	0.428862
 13.0173	0.428863
 13.0213	0.428863
 13.0253	0.428863
 13.0293	0.428864
 13.0333	0.428864
 13.0373	0.428865
 13.0413	0.428865
 13.0453	0.428866
 13.0493	0.428866
 13.0533	0.428866
 13.0573	0.428867
 13.0613	0.428867
 13.0653	0.428868
 13.0693	0.428868
 13.0733	0.428868
 13.0773	0.428869
 13.0813	0.428869
 13.0853	0.42887
 13.0893	0.42887
 13.0933	0.42887
 13.0973	0.428871
 13.1013	0.428871
 13.1053	0.428872
 13.1093	0.428872
 13.1133	0.428872
 13.1173	0.428873
 13.1213	0.428873
 13.1253	0.428874
 13.1293	0.428874
 13.1333	0.428874
 13.1373	0.428875
 13.1413	0.428875
 13.1453	0.428876
 13.1493	0.428876
 13.1533	0.428876
 13.1573	0.428877
 13.1613	0.428877
 13.1653	0.428878
 13.1693	0.428878
 13.1733	0.428878
 13.1773	0.428879
 13.1813	0.428879
 13.1853	0.42888
 13.1893	0.42888
 13.1933	0.42888
 13.1973	0.428881
 13.2013	0.428881
 13.2053	0.428882
 13.2093	0.428882
 13.2133	0.428882
 13.2173	0.428883
 13.2213	0.428883
 13.2253	0.428884
 13.2293	0.428884
 13.2333	0.428884
 13.2373	0.428885
 13.2413	0.428885
 13.2453	0.428886
 13.2493	0.428886
 13.2533	0.428886
 13.2573	0.428887
 13.2613	0.428887
 13.2653	0.428888
 13.2693	0.428888
 13.2733	0.428888
 13.2773	0.428889
 13.2813	0.428889
 13.2853	0.42889
 13.2893	0.42889
 13.2933	0.428891
 13.2973	0.428891
 13.3013	0.428891
 13.3053	0.428892
 13.3093	0.428892
 13.3133	0.428893
 13.3173	0.428893
 13.3213	0.428893
 13.3253	0.428894
 13.3293	0.428894
 13.3333	0.428895
 13.3373	0.428895
 13.3413	0.428895
 13.3453	0.428896
 13.3493	0.428896
 13.3533	0.428897
 13.3573	0.428897
 13.3613	0.428897
 13.3653	0.428898
 13.3693	0.428898
 13.3733	0.428899
 13.3773	0.428899
 13.3813	0.428899
 13.3853	0.4289
 13.3893	0.4289
 13.3933	0.428901
 13.3973	0.428901
 13.4013	0.428901
 13.4053	0.428902
 13.4093	0.428902
 13.4133	0.428903
 13.4173	0.428903
 13.4213	0.428903
 13.4253	0.428904
 13.4293	0.428904
 13.4333	0.428905
 13.4373	0.428905
 13.4413	0.428905
 13.4453	0.428906
 13.4493	0.428906
 13.4533	0.428907
 13.4573	0.428907
 13.4613	0.428907
 13.4653	0.428908
 13.4693	0.428908
 13.4733	0.428909
 13.4773	0.428909
 13.4813	0.428909
 13.4853	0.42891
 13.4893	0.42891
 13.4933	0.428911
 13.4973	0.428911
 13.5014	0.428911
 13.5054	0.428912
 13.5094	0.428912
 13.5134	0.428913
 13.5174	0.428913
 13.5214	0.428913
 13.5254	0.428914
 13.5294	0.428914
 13.5334	0.428915
 13.5374	0.428915
 13.5414	0.428916
 13.5454	0.428916
 13.5494	0.428916
 13.5534	0.428917
 13.5574	0.428917
 13.5614	0.428918
 13.5654	0.428918
 13.5694	0.428918
 13.5734	0.428919
 13.5774	0.428919
 13.5814	0.42892
 13.5854	0.42892
 13.5894	0.42892
 13.5934	0.428921
 13.5974	0.428921
 13.6014	0.428922
 13.6054	0.428922
 13.6094	0.428922
 13.6134	0.428923
 13.6174	0.428923
 13.6214	0.428924
 13.6254	0.428924
 13.6294	0.428924
 13.6334	0.428925
 13.6374	0.428925
 13.6414	0.428926
 13.6454	0.428926
 13.6494	0.428926
 13.6534	0.428927
 13.6574	0.428927
 13.6614	0.428928
 13.6654	0.428928
 13.6694	0.428928
 13.6734	0.428929
 13.6774	0.428929
 13.6814	0.42893
 13.6854	0.42893
 13.6894	0.42893
 13.6934	0.428931
 13.6974	0.428931
 13.7014	0.428932
 13.7054	0.428932
 13.7094	0.428932
 13.7134	0.428933
 13.7174	0.428933
 13.7214	0.428934
 13.7254	0.428934
 13.7294	0.428934
 13.7334	0.428935
 13.7374	0.428935
 13.7414	0.428936
 13.7454	0.428936
 13.7494	0.428936
 13.7534	0.428937
 13.7574	0.428937
 13.7614	0.428938
 13.7654	0.428938
 13.7694	0.428939
 13.7734	0.428939
 13.7774	0.428939
 13.7814	0.42894
 13.7854	0.42894
 13.7894	0.428941
 13.7934	0.428941
 13.7974	0.428941
 13.8014	0.428942
 13.8054	0.428942
 13.8094	0.428943
 13.8134	0.428943
 13.8174	0.428943
 13.8214	0.428944
 13.8254	0.428944
 13.8294	0.428945
 13.8334	0.428945
 13.8374	0.428945
 13.8414	0.428946
 13.8454	0.428946
 13.8494	0.428947
 13.8534	0.428947
 13.8574	0.428947
 13.8614	0.428948
 13.8654	0.428948
 13.8694	0.428949
 13.8734	0.428949
 13.8774	0.428949
 13.8814	0.42895
 13.8854	0.42895
 13.8894	0.428951
 13.8934	0.428951
 13.8974	0.428951
 13.9014	0.428952
 13.9054	0.428952
 13.9094	0.428953
 13.9134	0.428953
 13.9174	0.428953
 13.9214	0.428954
 13.9254	0.428954
 13.9294	0.428955
 13.9334	0.428955
 13.9374	0.428955
 13.9414	0.428956
 13.9454	0.428956
 13.9494	0.428957
 13.9534	0.428957
 13.9574	0.428957
 13.9614	0.428958
 13.9654	0.428958
 13.9694	0.428959
 13.9734	0.428959
 13.9774	0.428959
 13.9814	0.42896
 13.9854	0.42896
 13.9894	0.428961
 13.9934	0.428961
 13.9974	0.428961
 14.0014	0.428962
 14.0054	0.428962
 14.0094	0.428963
 14.0134	0.428963
 14.0174	0.428964
 14.0214	0.428964
 14.0254	0.428964
 14.0294	0.428965
 14.0334	0.428965
 14.0374	0.428966
 14.0414	0.428966
 14.0454	0.428966
 14.0494	0.428967
 14.0534	0.428967
 14.0574	0.428968
 14.0614	0.428968
 14.0654	0.428968
 14.0694	0.428969
 14.0734	0.428969
 14.0774	0.42897
 14.0814	0.42897
 14.0854	0.42897
 14.0894	0.428971
 14.0934	0.428971
 14.0974	0.428972
 14.1014	0.428972
 14.1054	0.428972
 14.1094	0.428973
 14.1134	0.428973
 14.1174	0.428974
 14.1214	0.428974
 14.1254	0.428974
 14.1294	0.428975
 14.1334	0.428975
 14.1374	0.428976
 14.1414	0.428976
 14.1454	0.428976
 14.1494	0.428977
 14.1534	0.428977
 14.1574	0.428978
 14.1614	0.428978
 14.1654	0.428978
 14.1694	0.428979
 14.1734	0.428979
 14.1774	0.42898
 14.1814	0.42898
 14.1854	0.42898
 14.1894	0.428981
 14.1934	0.428981
 14.1974	0.428982
 14.2014	0.428982
 14.2054	0.428982
 14.2094	0.428983
 14.2134	0.428983
 14.2174	0.428984
 14.2214	0.428984
 14.2254	0.428984
 14.2294	0.428985
 14.2334	0.428985
 14.2374	0.428986
 14.2414	0.428986
 14.2454	0.428986
 14.2494	0.428987
 14.2534	0.428987
 14.2574	0.428988
 14.2614	0.428988
 14.2654	0.428989
 14.2694	0.428989
 14.2734	0.428989
 14.2774	0.42899
 14.2814	0.42899
 14.2854	0.428991
 14.2894	0.428991
 14.2934	0.428991
 14.2974	0.428992
 14.3014	0.428992
 14.3054	0.428993
 14.3094	0.428993
 14.3134	0.428993
 14.3174	0.428994
 14.3214	0.428994
 14.3254	0.428995
 14.3294	0.428995
 14.3334	0.428995
 14.3374	0.428996
 14.3414	0.428996
 14.3454	0.428997
 14.3494	0.428997
 14.3534	0.428997
 14.3574	0.428998
 14.3614	0.428998
 14.3654	0.428999
 14.3694	0.428999
 14.3734	0.428999
 14.3774	0.429
 14.3814	0.429
 14.3854	0.429001
 14.3894	0.429001
 14.3934	0.429001
 14.3974	0.429002
 14.4014	0.429002
 14.4054	0.429003
 14.4094	0.429003
 14.4134	0.429003
 14.4174	0.429004
 14.4214	0.429004
 14.4254	0.429005
 14.4294	0.429005
 14.4334	0.429005
 14.4374	0.429006
 14.4414	0.429006
 14.4454	0.429007
 14.4494	0.429007
 14.4534	0.429007
 14.4574	0.429008
 14.4614	0.429008
 14.4654	0.429009
 14.4694	0.429009
 14.4734	0.429009
 14.4774	0.42901
 14.4814	0.42901
 14.4854	0.429011
 14.4894	0.429011
 14.4934	0.429012
 14.4974	0.429012
 14.5015	0.429012
 14.5055	0.429013
 14.5095	0.429013
 14.5135	0.429014
 14.5175	0.429014
 14.5215	0.429014
 14.5255	0.429015
 14.5295	0.429015
 14.5335	0.429016
 14.5375	0.429016
 14.5415	0.429016
 14.5455	0.429017
 14.5495	0.429017
 14.5535	0.429018
 14.5575	0.429018
 14.5615	0.429018
 14.5655	0.429019
 14.5695	0.429019
 14.5735	0.42902
 14.5775	0.42902
 14.5815	0.42902
 14.5855	0.429021
 14.5895	0.429021
 14.5935	0.429022
 14.5975	0.429022
 14.6015	0.429022
 14.6055	0.429023
 14.6095	0.429023
 14.6135	0.429024
 14.6175	0.429024
 14.6215	0.429024
 14.6255	0.429025
 14.6295	0.429025
 14.6335	0.429026
 14.6375	0.429026
 14.6415	0.429026
 14.6455	0.429027
 14.6495	0.429027
 14.6535	0.429028
 14.6575	0.429028
 14.6615	0.429028
 14.6655	0.429029
 14.6695	0.429029
 14.6735	0.42903
 14.6775	0.42903
 14.6815	0.42903
 14.6855	0.429031
 14.6895	0.429031
 14.6935	0.429032
 14.6975	0.429032
 14.7015	0.429032
 14.7055	0.429033
 14.7095	0.429033
 14.7135	0.429034
 14.7175	0.429034
 14.7215	0.429034
 14.7255	0.429035
 14.7295	0.429035
 14.7335	0.429036
 14.7375	0.429036
 14.7415	0.429037
 14.7455	0.429037
 14.7495	0.429037
 14.7535	0.429038
 14.7575	0.429038
 14.7615	0.429039
 14.7655	0.429039
 14.7695	0.429039
 14.7735	0.42904
 14.7775	0.42904
 14.7815	0.429041
 14.7855	0.429041
 14.7895	0.429041
 14.7935	0.429042
 14.7975	0.429042
 14.8015	0.429043
 14.8055	0.429043
 14.8095	0.429043
 14.8135	0.429044
 14.8175	0.429044
 14.8215	0.429045
 14.8255	0.429045
 14.8295	0.429045
 14.8335	0.429046
 14.8375	0.429046
 14.8415	0.429047
 14.8455	0.429047
 14.8495	0.429047
 14.8535	0.429048
 14.8575	0.429048
 14.8615	0.429049
 14.8655	0.429049
 14.8695	0.429049
 14.8735	0.42905
 14.8775	0.42905
 14.8815	0.429051
 14.8855	0.429051
 14.8895	0.429051
 14.8935	0.429052
 14.8975	0.429052
 14.9015	0.429053
 14.9055	0.429053
 14.9095	0.429053
 14.9135	0.429054
 14.9175	0.429054
 14.9215	0.429055
 14.9255	0.429055
 14.9295	0.429055
 14.9335	0.429056
 14.9375	0.429056
 14.9415	0.429057
 14.9455	0.429057
 14.9495	0.429057
 14.9535	0.429058
 14.9575	0.429058
 14.9615	0.429059
 14.9655	0.429059
 14.9695	0.429059
 14.9735	0.42906
 14.9775	0.42906
 14.9815	0.429061
 14.9855	0.429061
 14.9895	0.429062
 14.9935	0.429062
 14.9975	0.429062
 15.0015	0.429063
 15.0055	0.429063
 15.0095	0.429063
 15.0135	0.429063
 15.0175	0.429063
 15.0215	0.429063
 15.0255	0.429063
 15.0295	0.429063
 15.0335	0.429064
 15.0375	0.429064
 15.0415	0.429064
 15.0455	0.429064
 15.0495	0.429064
 15.0535	0.429064
 15.0575	0.429064
 15.0615	0.429064
 15.0655	0.429065
 15.0695	0.429065
 15.0735	0.429065
 15.0775	0.429065
 15.0815	0.429065
 15.0855	0.429065
 15.0895	0.429065
 15.0935	0.429065
 15.0975	0.429066
 15.1015	0.429066
 15.1055	0.429066
 15.1095	0.429066
 15.1135	0.429066
 15.1175	0.429066
 15.1215	0.429066
 15.1255	0.429066
 15.1295	0.429066
 15.1335	0.429067
 15.1375	0.429067
 15.1415	0.429067
 15.1455	0.429067
 15.1495	0.429067
 15.1535	0.429067
 15.1575	0.429067
 15.1615	0.429067
 15.1655	0.429068
 15.1695	0.429068
 15.1735	0.429068
 15.1775	0.429068
 15.1815	0.429068
 15.1855	0.429068
 15.1895	0.429068
 15.1935	0.429068
 15.1975	0.429069
 15.2015	0.429069
 15.2055	0.429069
 15.2095	0.429069
 15.2135	0.429069
 15.2175	0.429069
 15.2215	0.429069
 15.2255	0.429069
 15.2295	0.42907
 15.2335	0.42907
 15.2375	0.42907
 15.2415	0.42907
 15.2455	0.42907
 15.2495	0.42907
 15.2535	0.42907
 15.2575	0.42907
 15.2615	0.42907
 15.2655	0.429071
 15.2695	0.429071
 15.2735	0.429071
 15.2775	0.429071
 15.2815	0.429071
 15.2855	0.429071
 15.2895	0.429071
 15.2935	0.429071
 15.2975	0.429072
 15.3015	0.429072
 15.3055	0.429072
 15.3095	0.429072
 15.3135	0.429072
 15.3175	0.429072
 15.3215	0.429072
 15.3255	0.429072
 15.3295	0.429073
 15.3335	0.429073
 15.3375	0.429073
 15.3415	0.429073
 15.3455	0.429073
 15.3495	0.429073
 15.3535	0.429073
 15.3575	0.429073
 15.3615	0.429074
 15.3655	0.429074
 15.3695	0.429074
 15.3735	0.429074
 15.3775	0.429074
 15.3815	0.429074
 15.3855	0.429074
 15.3895	0.429074
 15.3935	0.429074
 15.3975	0.429075
 15.4015	0.429075
 15.4055	0.429075
 15.4095	0.429075
 15.4135	0.429075
 15.4175	0.429075
 15.4215	0.429075
 15.4255	0.429075
 15.4295	0.429076
 15.4335	0.429076
 15.4375	0.429076
 15.4415	0.429076
 15.4455	0.429076
 15.4495	0.429076
 15.4535	0.429076
 15.4575	0.429076
 15.4615	0.429077
 15.4655	0.429077
 15.4695	0.429077
 15.4735	0.429077
 15.4775	0.429077
 15.4815	0.429077
 15.4855	0.429077
 15.4895	0.429077
 15.4935	0.429078
 15.4975	0.429078
 15.5016	0.429078
 15.5056	0.429078
 15.5096	0.429078
 15.5136	0.429078
 15.5176	0.429078
 15.5216	0.429078
 15.5256	0.429078
 15.5296	0.429079
 15.5336	0.429079
 15.5376	0.429079
 15.5416	0.429079
 15.5456	0.429079
 15.5496	0.429079
 15.5536	0.429079
 15.5576	0.429079
 15.5616	0.42908
 15.5656	0.42908
 15.5696	0.42908
 15.5736	0.42908
 15.5776	0.42908
 15.5816	0.42908
 15.5856	0.42908
 15.5896	0.42908
 15.5936	0.429081
 15.5976	0.429081
 15.6016	0.429081
 15.6056	0.429081
 15.6096	0.429081
 15.6136	0.429081
 15.6176	0.429081
 15.6216	0.429081
 15.6256	0.429081
 15.6296	0.429082
 15.6336	0.429082
 15.6376	0.429082
 15.6416	0.429082
 15.6456	0.429082
 15.6496	0.429082
 15.6536	0.429082
 15.6576	0.429082
 15.6616	0.429083
 15.6656	0.429083
 15.6696	0.429083
 15.6736	0.429083
 15.6776	0.429083
 15.6816	0.429083
 15.6856	0.429083
 15.6896	0.429083
 15.6936	0.429084
 15.6976	0.429084
 15.7016	0.429084
 15.7056	0.429084
 15.7096	0.429084
 15.7136	0.429084
 15.7176	0.429084
 15.7216	0.429084
 15.7256	0.429085
 15.7296	0.429085
 15.7336	0.429085
 15.7376	0.429085
 15.7416	0.429085
 15.7456	0.429085
 15.7496	0.429085
 15.7536	0.429085
 15.7576	0.429085
 15.7616	0.429086
 15.7656	0.429086
 15.7696	0.429086
 15.7736	0.429086
 15.7776	0.429086
 15.7816	0.429086
 15.7856	0.429086
 15.7896	0.429086
 15.7936	0.429087
 15.7976	0.429087
 15.8016	0.429087
 15.8056	0.429087
 15.8096	0.429087
 15.8136	0.429087
 15.8176	0.429087
 15.8216	0.429087
 15.8256	0.429088
 15.8296	0.429088
 15.8336	0.429088
 15.8376	0.429088
 15.8416	0.429088
 15.8456	0.429088
 15.8496	0.429088
 15.8536	0.429088
 15.8576	0.429089
 15.8616	0.429089
 15.8656	0.429089
 15.8696	0.429089
 15.8736	0.429089
 15.8776	0.429089
 15.8816	0.429089
 15.8856	0.429089
 15.8896	0.429089
 15.8936	0.42909
 15.8976	0.42909
 15.9016	0.42909
 15.9056	0.42909
 15.9096	0.42909
 15.9136	0.42909
 15.9176	0.42909
 15.9216	0.42909
 15.9256	0.429091
 15.9296	0.429091
 15.9336	0.429091
 15.9376	0.429091
 15.9416	0.429091
 15.9456	0.429091
 15.9496	0.429091
 15.9536	0.429091
 15.9576	0.429092
 15.9616	0.429092
 15.9656	0.429092
 15.9696	0.429092
 15.9736	0.429092
 15.9776	0.429092
 15.9816	0.429092
 15.9856	0.429092
 15.9896	0.429093
 15.9936	0.429093
 15.9976	0.429093
 16.0016	0.429093
 16.0056	0.429093
 16.0096	0.429093
 16.0136	0.429094
 16.0176	0.429094
 16.0216	0.429094
 16.0256	0.429094
 16.0296	0.429095
 16.0336	0.429095
 16.0376	0.429095
 16.0416	0.429095
 16.0456	0.429096
 16.0496	0.429096
 16.0536	0.429096
 16.0576	0.429096
 16.0616	0.429097
 16.0656	0.429097
 16.0696	0.429097
 16.0736	0.429097
 16.0776	0.429098
 16.0816	0.429098
 16.0856	0.429098
 16.0896	0.429098
 16.0936	0.429098
 16.0976	0.429099
 16.1016	0.429099
 16.1056	0.429099
 16.1096	0.429099
 16.1136	0.4291
 16.1176	0.4291
 16.1216	0.4291
 16.1256	0.4291
 16.1296	0.429101
 16.1336	0.429101
 16.1376	0.429101
 16.1416	0.429101
 16.1456	0.429102
 16.1496	0.429102
 16.1536	0.429102
 16.1576	0.429102
 16.1616	0.429103
 16.1656	0.429103
 16.1696	0.429103
 16.1736	0.429103
 16.1776	0.429104
 16.1816	0.429104
 16.1856	0.429104
 16.1896	0.429104
 16.1936	0.429105
 16.1976	0.429105
 16.2016	0.429105
 16.2056	0.429105
 16.2096	0.429106
 16.2136	0.429106
 16.2176	0.429106
 16.2216	0.429106
 16.2256	0.429106
 16.2296	0.429107
 16.2336	0.429107
 16.2376	0.429107
 16.2416	0.429107
 16.2456	0.429108
 16.2496	0.429108
 16.2536	0.429108
 16.2576	0.429108
 16.2616	0.429109
 16.2656	0.429109
 16.2696	0.429109
 16.2736	0.429109
 16.2776	0.42911
 16.2816	0.42911
 16.2856	0.42911
 16.2896	0.42911
 16.2936	0.429111
 16.2976	0.429111
 16.3016	0.429111
 16.3056	0.429111
 16.3096	0.429112
 16.3136	0.429112
 16.3176	0.429112
 16.3216	0.429112
 16.3256	0.429113
 16.3296	0.429113
 16.3336	0.429113
 16.3376	0.429113
 16.3416	0.429113
 16.3456	0.429114
 16.3496	0.429114
 16.3536	0.429114
 16.3576	0.429114
 16.3616	0.429115
 16.3656	0.429115
 16.3696	0.429115
 16.3736	0.429115
 16.3776	0.429116
 16.3816	0.429116
 16.3856	0.429116
 16.3896	0.429116
 16.3936	0.429117
 16.3976	0.429117
 16.4016	0.429117
 16.4056	0.429117
 16.4096	0.429118
 16.4136	0.429118
 16.4176	0.429118
 16.4216	0.429118
 16.4256	0.429119
 16.4296	0.429119
 16.4336	0.429119
 16.4376	0.429119
 16.4416	0.42912
 16.4456	0.42912
 16.4496	0.42912
 16.4536	0.42912
 16.4576	0.42912
 16.4616	0.429121
 16.4656	0.429121
 16.4696	0.429121
 16.4736	0.429121
 16.4776	0.429122
 16.4816	0.429122
 16.4856	0.429122
 16.4896	0.429122
 16.4936	0.429123
 16.4976	0.429123
 16.5017	0.429123
 16.5057	0.429123
 16.5097	0.429124
 16.5137	0.429124
 16.5177	0.429124
 16.5217	0.429124
 16.5257	0.429125
 16.5297	0.429125
 16.5337	0.429125
 16.5377	0.429125
 16.5417	0.429126
 16.5457	0.429126
 16.5497	0.429126
 16.5537	0.429126
 16.5577	0.429127
 16.5617	0.429127
 16.5657	0.429127
 16.5697	0.429127
 16.5737	0.429128
 16.5777	0.429128
 16.5817	0.429128
 16.5857	0.429128
 16.5897	0.429128
 16.5937	0.429129
 16.5977	0.429129
 16.6017	0.429129
 16.6057	0.429129
 16.6097	0.42913
 16.6137	0.42913
 16.6177	0.42913
 16.6217	0.42913
 16.6257	0.429131
 16.6297	0.429131
 16.6337	0.429131
 16.6377	0.429131
 16.6417	0.429132
 16.6457	0.429132
 16.6497	0.429132
 16.6537	0.429132
 16.6577	0.429133
 16.6617	0.429133
 16.6657	0.429133
 16.6697	0.429133
 16.6737	0.429134
 16.6777	0.429134
 16.6817	0.429134
 16.6857	0.429134
 16.6897	0.429135
 16.6937	0.429135
 16.6977	0.429135
 16.7017	0.429135
 16.7057	0.429135
 16.7097	0.429136
 16.7137	0.429136
 16.7177	0.429136
 16.7217	0.429136
 16.7257	0.429137
 16.7297	0.429137
 16.7337	0.429137
 16.7377	0.429137
 16.7417	0.429138
 16.7457	0.429138
 16.7497	0.429138
 16.7537	0.429138
 16.7577	0.429139
 16.7617	0.429139
 16.7657	0.429139
 16.7697	0.429139
 16.7737	0.42914
 16.7777	0.42914
 16.7817	0.42914
 16.7857	0.42914
 16.7897	0.429141
 16.7937	0.429141
 16.7977	0.429141
 16.8017	0.429141
 16.8057	0.429142
 16.8097	0.429142
 16.8137	0.429142
 16.8177	0.429142
 16.8217	0.429143
 16.8257	0.429143
 16.8297	0.429143
 16.8337	0.429143
 16.8377	0.429143
 16.8417	0.429144
 16.8457	0.429144
 16.8497	0.429144
 16.8537	0.429144
 16.8577	0.429145
 16.8617	0.429145
 16.8657	0.429145
 16.8697	0.429145
 16.8737	0.429146
 16.8777	0.429146
 16.8817	0.429146
 16.8857	0.429146
 16.8897	0.429147
 16.8937	0.429147
 16.8977	0.429147
 16.9017	0.429147
 16.9057	0.429148
 16.9097	0.429148
 16.9137	0.429148
 16.9177	0.429148
 16.9217	0.429149
 16.9257	0.429149
 16.9297	0.429149
 16.9337	0.429149
 16.9377	0.42915
 16.9417	0.42915
 16.9457	0.42915
 16.9497	0.42915
 16.9537	0.42915
 16.9577	0.429151
 16.9617	0.429151
 16.9657	0.429151
 16.9697	0.429151
 16.9737	0.429152
 16.9777	0.429152
 16.9817	0.429152
 16.9857	0.429152
 16.9897	0.429153
 16.9937	0.429153
 16.9977	0.429153
 17.0017	0.429153
 17.0057	0.429154
 17.0097	0.429154
 17.0137	0.429154
 17.0177	0.429154
 17.0217	0.429154
 17.0257	0.429155
 17.0297	0.429155
 17.0337	0.429155
 17.0377	0.429155
 17.0417	0.429155
 17.0457	0.429156
 17.0497	0.429156
 17.0537	0.429156
 17.0577	0.429156
 17.0617	0.429156
 17.0657	0.429157
 17.0697	0.429157
 17.0737	0.429157
 17.0777	0.429157
 17.0817	0.429157
 17.0857	0.429158
 17.0897	0.429158
 17.0937	0.429158
 17.0977	0.429158
 17.1017	0.429158
 17.1057	0.429159
 17.1097	0.429159
 17.1137	0.429159
 17.1177	0.429159
 17.1217	0.429159
 17.1257	0.42916
 17.1297	0.42916
 17.1337	0.42916
 17.1377	0.42916
 17.1417	0.42916
 17.1457	0.429161
 17.1497	0.429161
 17.1537	0.429161
 17.1577	0.429161
 17.1617	0.429161
 17.1657	0.429162
 17.1697	0.429162
 17.1737	0.429162
 17.1777	0.429162
 17.1817	0.429162
 17.1857	0.429163
 17.1897	0.429163
 17.1937	0.429163
 17.1977	0.429163
 17.2017	0.429163
 17.2057	0.429164
 17.2097	0.429164
 17.2137	0.429164
 17.2177	0.429164
 17.2217	0.429164
 17.2257	0.429165
 17.2297	0.429165
 17.2337	0.429165
 17.2377	0.429165
 17.2417	0.429165
 17.2457	0.429166
 17.2497	0.429166
 17.2537	0.429166
 17.2577	0.429166
 17.2617	0.429166
 17.2657	0.429167
 17.2697	0.429167
 17.2737	0.429167
 17.2777	0.429167
 17.2817	0.429168
 17.2857	0.429168
 17.2897	0.429168
 17.2937	0.429168
 17.2977	0.429168
 17.3017	0.429169
 17.3057	0.429169
 17.3097	0.429169
 17.3137	0.429169
 17.3177	0.429169
 17.3217	0.42917
 17.3257	0.42917
 17.3297	0.42917
 17.3337	0.42917
 17.3377	0.42917
 17.3417	0.429171
 17.3457	0.429171
 17.3497	0.429171
 17.3537	0.429171
 17.3577	0.429171
 17.3617	0.429172
 17.3657	0.429172
 17.3697	0.429172
 17.3737	0.429172
 17.3777	0.429172
 17.3817	0.429173
 17.3857	0.429173
 17.3897	0.429173
 17.3937	0.429173
 17.3977	0.429173
 17.4017	0.429174
 17.4057	0.429174
 17.4097	0.429174
 17.4137	0.429174
 17.4177	0.429174
 17.4217	0.429175
 17.4257	0.429175
 17.4297	0.429175
 17.4337	0.429175
 17.4377	0.429175
 17.4417	0.429176
 17.4457	0.429176
 17.4497	0.429176
 17.4537	0.429176
 17.4577	0.429176
 17.4617	0.429177
 17.4657	0.429177
 17.4697	0.429177
 17.4737	0.429177
 17.4777	0.429177
 17.4817	0.429178
 17.4857	0.429178
 17.4897	0.429178
 17.4937	0.429178
 17.4977	0.429178
 17.5018	0.429179
 17.5058	0.429179
 17.5098	0.429179
 17.5138	0.429179
 17.5178	0.429179
 17.5218	0.42918
 17.5258	0.42918
 17.5298	0.42918
 17.5338	0.42918
 17.5378	0.42918
 17.5418	0.429181
 17.5458	0.429181
 17.5498	0.429181
 17.5538	0.429181
 17.5578	0.429181
 17.5618	0.429182
 17.5658	0.429182
 17.5698	0.429182
 17.5738	0.429182
 17.5778	0.429182
 17.5818	0.429183
 17.5858	0.429183
 17.5898	0.429183
 17.5938	0.429183
 17.5978	0.429183
 17.6018	0.429184
 17.6058	0.429184
 17.6098	0.429184
 17.6138	0.429184
 17.6178	0.429184
 17.6218	0.429185
 17.6258	0.429185
 17.6298	0.429185
 17.6338	0.429185
 17.6378	0.429185
 17.6418	0.429186
 17.6458	0.429186
 17.6498	0.429186
 17.6538	0.429186
 17.6578	0.429186
 17.6618	0.429187
 17.6658	0.429187
 17.6698	0.429187
 17.6738	0.429187
 17.6778	0.429187
 17.6818	0.429188
 17.6858	0.429188
 17.6898	0.429188
 17.6938	0.429188
 17.6978	0.429188
 17.7018	0.429189
 17.7058	0.429189
 17.7098	0.429189
 17.7138	0.429189
 17.7178	0.429189
 17.7218	0.42919
 17.7258	0.42919
 17.7298	0.42919
 17.7338	0.42919
 17.7378	0.42919
 17.7418	0.429191
 17.7458	0.429191
 17.7498	0.429191
 17.7538	0.429191
 17.7578	0.429192
 17.7618	0.429192
 17.7658	0.429192
 17.7698	0.429192
 17.7738	0.429192
 17.7778	0.429193
 17.7818	0.429193
 17.7858	0.429193
 17.7898	0.429193
 17.7938	0.429193
 17.7978	0.429194
 17.8018	0.429194
 17.8058	0.429194
 17.8098	0.429194
 17.8138	0.429194
 17.8178	0.429195
 17.8218	0.429195
 17.8258	0.429195
 17.8298	0.429195
 17.8338	0.429195
 17.8378	0.429196
 17.8418	0.429196
 17.8458	0.429196
 17.8498	0.429196
 17.8538	0.429196
 17.8578	0.429197
 17.8618	0.429197
 17.8658	0.429197
 17.8698	0.429197
 17.8738	0.429197
 17.8778	0.429198
 17.8818	0.429198
 17.8858	0.429198
 17.8898	0.429198
 17.8938	0.429198
 17.8978	0.429199
 17.9018	0.429199
 17.9058	0.429199
 17.9098	0.429199
 17.9138	0.429199
 17.9178	0.4292
 17.9218	0.4292
 17.9258	0.4292
 17.9298	0.4292
 17.9338	0.4292
 17.9378	0.429201
 17.9418	0.429201
 17.9458	0.429201
 17.9498	0.429201
 17.9538	0.429201
 17.9578	0.429202
 17.9618	0.429202
 17.9658	0.429202
 17.9698	0.429202
 17.9738	0.429202
 17.9778	0.429203
 17.9818	0.429203
 17.9858	0.429203
 17.9898	0.429203
 17.9938	0.429203
 17.9978	0.429204
 18.0018	0.429204
 18.0058	0.429204
 18.0098	0.429204
 18.0138	0.429205
 18.0178	0.429205
 18.0218	0.429205
 18.0258	0.429206
 18.0298	0.429206
 18.0338	0.429206
 18.0378	0.429206
 18.0418	0.429207
 18.0458	0.429207
 18.0498	0.429207
 18.0538	0.429208
 18.0578	0.429208
 18.0618	0.429208
 18.0658	0.429208
 18.0698	0.429209
 18.0738	0.429209
 18.0778	0.429209
 18.0818	0.429209
 18.0858	0.42921
 18.0898	0.42921
 18.0938	0.42921
 18.0978	0.429211
 18.1018	0.429211
 18.1058	0.429211
 18.1098	0.429211
 18.1138	0.429212
 18.1178	0.429212
 18.1218	0.429212
 18.1258	0.429213
 18.1298	0.429213
 18.1338	0.429213
 18.1378	0.429213
 18.1418	0.429214
 18.1458	0.429214
 18.1498	0.429214
 18.1538	0.429215
 18.1578	0.429215
 18.1618	0.429215
 18.1658	0.429215
 18.1698	0.429216
 18.1738	0.429216
 18.1778	0.429216
 18.1818	0.429217
 18.1858	0.429217
 18.1898	0.429217
 18.1938	0.429217
 18.1978	0.429218
 18.2018	0.429218
 18.2058	0.429218
 18.2098	0.429219
 18.2138	0.429219
 18.2178	0.429219
 18.2218	0.429219
 18.2258	0.42922
 18.2298	0.42922
 18.2338	0.42922
 18.2378	0.429221
 18.2418	0.429221
 18.2458	0.429221
 18.2498	0.429221
 18.2538	0.429222
 18.2578	0.429222
 18.2618	0.429222
 18.2658	0.429222
 18.2698	0.429223
 18.2738	0.429223
 18.2778	0.429223
 18.2818	0.429224
 18.2858	0.429224
 18.2898	0.429224
 18.2938	0.429224
 18.2978	0.429225
 18.3018	0.429225
 18.3058	0.429225
 18.3098	0.429226
 18.3138	0.429226
 18.3178	0.429226
 18.3218	0.429226
 18.3258	0.429227
 18.3298	0.429227
 18.3338	0.429227
 18.3378	0.429228
 18.3418	0.429228
 18.3458	0.429228
 18.3498	0.429228
 18.3538	0.429229
 18.3578	0.429229
 18.3618	0.429229
 18.3658	0.42923
 18.3698	0.42923
 18.3738	0.42923
 18.3778	0.42923
 18.3818	0.429231
 18.3858	0.429231
 18.3898	0.429231
 18.3938	0.429232
 18.3978	0.429232
 18.4018	0.429232
 18.4058	0.429232
 18.4098	0.429233
 18.4138	0.429233
 18.4178	0.429233
 18.4218	0.429233
 18.4258	0.429234
 18.4298	0.429234
 18.4338	0.429234
 18.4378	0.429235
 18.4418	0.429235
 18.4458	0.429235
 18.4498	0.429235
 18.4538	0.429236
 18.4578	0.429236
 18.4618	0.429236
 18.4658	0.429237
 18.4698	0.429237
 18.4738	0.429237
 18.4778	0.429237
 18.4818	0.429238
 18.4858	0.429238
 18.4898	0.429238
 18.4938	0.429239
 18.4978	0.429239
 18.5019	0.429239
 18.5059	0.429239
 18.5099	0.42924
 18.5139	0.42924
 18.5179	0.42924
 18.5219	0.429241
 18.5259	0.429241
 18.5299	0.429241
 18.5339	0.429241
 18.5379	0.429242
 18.5419	0.429242
 18.5459	0.429242
 18.5499	0.429243
 18.5539	0.429243
 18.5579	0.429243
 18.5619	0.429243
 18.5659	0.429244
 18.5699	0.429244
 18.5739	0.429244
 18.5779	0.429244
 18.5819	0.429245
 18.5859	0.429245
 18.5899	0.429245
 18.5939	0.429246
 18.5979	0.429246
 18.6019	0.429246
 18.6059	0.429246
 18.6099	0.429247
 18.6139	0.429247
 18.6179	0.429247
 18.6219	0.429248
 18.6259	0.429248
 18.6299	0.429248
 18.6339	0.429248
 18.6379	0.429249
 18.6419	0.429249
 18.6459	0.429249
 18.6499	0.42925
 18.6539	0.42925
 18.6579	0.42925
 18.6619	0.42925
 18.6659	0.429251
 18.6699	0.429251
 18.6739	0.429251
 18.6779	0.429252
 18.6819	0.429252
 18.6859	0.429252
 18.6899	0.429252
 18.6939	0.429253
 18.6979	0.429253
 18.7019	0.429253
 18.7059	0.429254
 18.7099	0.429254
 18.7139	0.429254
 18.7179	0.429254
 18.7219	0.429255
 18.7259	0.429255
 18.7299	0.429255
 18.7339	0.429256
 18.7379	0.429256
 18.7419	0.429256
 18.7459	0.429256
 18.7499	0.429257
 18.7539	0.429257
 18.7579	0.429257
 18.7619	0.429257
 18.7659	0.429258
 18.7699	0.429258
 18.7739	0.429258
 18.7779	0.429259
 18.7819	0.429259
 18.7859	0.429259
 18.7899	0.429259
 18.7939	0.42926
 18.7979	0.42926
 18.8019	0.42926
 18.8059	0.429261
 18.8099	0.429261
 18.8139	0.429261
 18.8179	0.429261
 18.8219	0.429262
 18.8259	0.429262
 18.8299	0.429262
 18.8339	0.429263
 18.8379	0.429263
 18.8419	0.429263
 18.8459	0.429263
 18.8499	0.429264
 18.8539	0.429264
 18.8579	0.429264
 18.8619	0.429265
 18.8659	0.429265
 18.8699	0.429265
 18.8739	0.429265
 18.8779	0.429266
 18.8819	0.429266
 18.8859	0.429266
 18.8899	0.429267
 18.8939	0.429267
 18.8979	0.429267
 18.9019	0.429267
 18.9059	0.429268
 18.9099	0.429268
 18.9139	0.429268
 18.9179	0.429268
 18.9219	0.429269
 18.9259	0.429269
 18.9299	0.429269
 18.9339	0.42927
 18.9379	0.42927
 18.9419	0.42927
 18.9459	0.42927
 18.9499	0.429271
 18.9539	0.429271
 18.9579	0.429271
 18.9619	0.429272
 18.9659	0.429272
 18.9699	0.429272
 18.9739	0.429272
 18.9779	0.429273
 18.9819	0.429273
 18.9859	0.429273
 18.9899	0.429274
 18.9939	0.429274
 18.9979	0.429274
 19.0019	0.429274
 19.0059	0.429275
 19.0099	0.429275
 19.0139	0.429275
 19.0179	0.429275
 19.0219	0.429275
 19.0259	0.429276
 19.0299	0.429276
 19.0339	0.429276
 19.0379	0.429276
 19.0419	0.429276
 19.0459	0.429277
 19.0499	0.429277
 19.0539	0.429277
 19.0579	0.429277
 19.0619	0.429277
 19.0659	0.429278
 19.0699	0.429278
 19.0739	0.429278
 19.0779	0.429278
 19.0819	0.429278
 19.0859	0.429279
 19.0899	0.429279
 19.0939	0.429279
 19.0979	0.429279
 19.1019	0.429279
 19.1059	0.42928
 19.1099	0.42928
 19.1139	0.42928
 19.1179	0.42928
 19.1219	0.42928
 19.1259	0.429281
 19.1299	0.429281
 19.1339	0.429281
 19.1379	0.429281
 19.1419	0.429281
 19.1459	0.429282
 19.1499	0.429282
 19.1539	0.429282
 19.1579	0.429282
 19.1619	0.429282
 19.1659	0.429283
 19.1699	0.429283
 19.1739	0.429283
 19.1779	0.429283
 19.1819	0.429283
 19.1859	0.429284
 19.1899	0.429284
 19.1939	0.429284
 19.1979	0.429284
 19.2019	0.429284
 19.2059	0.429285
 19.2099	0.429285
 19.2139	0.429285
 19.2179	0.429285
 19.2219	0.429285
 19.2259	0.429286
 19.2299	0.429286
 19.2339	0.429286
 19.2379	0.429286
 19.2419	0.429286
 19.2459	0.429287
 19.2499	0.429287
 19.2539	0.429287
 19.2579	0.429287
 19.2619	0.429287
 19.2659	0.429288
 19.2699	0.429288
 19.2739	0.429288
 19.2779	0.429288
 19.2819	0.429289
 19.2859	0.429289
 19.2899	0.429289
 19.2939	0.429289
 19.2979	0.429289
 19.3019	0.42929
 19.3059	0.42929
 19.3099	0.42929
 19.3139	0.42929
 19.3179	0.42929
 19.3219	0.429291
 19.3259	0.429291
 19.3299	0.429291
 19.3339	0.429291
 19.3379	0.429291
 19.3419	0.429292
 19.3459	0.429292
 19.3499	0.429292
 19.3539	0.429292
 19.3579	0.429292
 19.3619	0.429293
 19.3659	0.429293
 19.3699	0.429293
 19.3739	0.429293
 19.3779	0.429293
 19.3819	0.429294
 19.3859	0.429294
 19.3899	0.429294
 19.3939	0.429294
 19.3979	0.429294
 19.4019	0.429295
 19.4059	0.429295
 19.4099	0.429295
 19.4139	0.429295
 19.4179	0.429295
 19.4219	0.429296
 19.4259	0.429296
 19.4299	0.429296
 19.4339	0.429296
 19.4379	0.429296
 19.4419	0.429297
 19.4459	0.429297
 19.4499	0.429297
 19.4539	0.429297
 19.4579	0.429297
 19.4619	0.429298
 19.4659	0.429298
 19.4699	0.429298
 19.4739	0.429298
 19.4779	0.429298
 19.4819	0.429299
 19.4859	0.429299
 19.4899	0.429299
 19.4939	0.429299
 19.4979	0.429299
 19.502	0.4293
 19.506	0.4293
 19.51	0.4293
 19.514	0.4293
 19.518	0.4293
 19.522	0.429301
 19.526	0.429301
 19.53	0.429301
 19.534	0.429301
 19.538	0.429301
 19.542	0.429302
 19.546	0.429302
 19.55	0.429302
 19.554	0.429302
 19.558	0.429302
 19.562	0.429303
 19.566	0.429303
 19.57	0.429303
 19.574	0.429303
 19.578	0.429303
 19.582	0.429304
 19.586	0.429304
 19.59	0.429304
 19.594	0.429304
 19.598	0.429304
 19.602	0.429305
 19.606	0.429305
 19.61	0.429305
 19.614	0.429305
 19.618	0.429305
 19.622	0.429306
 19.626	0.429306
 19.63	0.429306
 19.634	0.429306
 19.638	0.429306
 19.642	0.429307
 19.646	0.429307
 19.65	0.429307
 19.654	0.429307
 19.658	0.429307
 19.662	0.429308
 19.666	0.429308
 19.67	0.429308
 19.674	0.429308
 19.678	0.429308
 19.682	0.429309
 19.686	0.429309
 19.69	0.429309
 19.694	0.429309
 19.698	0.429309
 19.702	0.42931
 19.706	0.42931
 19.71	0.42931
 19.714	0.42931
 19.718	0.42931
 19.722	0.429311
 19.726	0.429311
 19.73	0.429311
 19.734	0.429311
 19.738	0.429312
 19.742	0.429312
 19.746	0.429312
 19.75	0.429312
 19.754	0.429312
 19.758	0.429313
 19.762	0.429313
 19.766	0.429313
 19.77	0.429313
 19.774	0.429313
 19.778	0.429314
 19.782	0.429314
 19.786	0.429314
 19.79	0.429314
 19.794	0.429314
 19.798	0.429315
 19.802	0.429315
 19.806	0.429315
 19.81	0.429315
 19.814	0.429315
 19.818	0.429316
 19.822	0.429316
 19.826	0.429316
 19.83	0.429316
 19.834	0.429316
 19.838	0.429317
 19.842	0.429317
 19.846	0.429317
 19.85	0.429317
 19.854	0.429317
 19.858	0.429318
 19.862	0.429318
 19.866	0.429318
 19.87	0.429318
 19.874	0.429318
 19.878	0.429319
 19.882	0.429319
 19.886	0.429319
 19.89	0.429319
 19.894	0.429319
 19.898	0.42932
 19.902	0.42932
 19.906	0.42932
 19.91	0.42932
 19.914	0.42932
 19.918	0.429321
 19.922	0.429321
 19.926	0.429321
 19.93	0.429321
 19.934	0.429321
 19.938	0.429322
 19.942	0.429322
 19.946	0.429322
 19.95	0.429322
 19.954	0.429322
 19.958	0.429323
 19.962	0.429323
 19.966	0.429323
 19.97	0.429323
 19.974	0.429323
 19.978	0.429324
 19.982	0.429324
 19.986	0.429324
 19.99	0.429324
 19.994	0.429324
 19.998	0.429325
 20.002	0.429325
 20.006	0.429325
 20.01	0.429325
 20.014	0.429325
 20.018	0.429325
 20.022	0.429326
 20.026	0.429326
 20.03	0.429326
 20.034	0.429326
 20.038	0.429326
 20.042	0.429326
 20.046	0.429326
 20.05	0.429327
 20.054	0.429327
 20.058	0.429327
 20.062	0.429327
 20.066	0.429327
 20.07	0.429327
 20.074	0.429327
 20.078	0.429328
 20.082	0.429328
 20.086	0.429328
 20.09	0.429328
 20.094	0.429328
 20.098	0.429328
 20.102	0.429328
 20.106	0.429329
 20.11	0.429329
 20.114	0.429329
 20.118	0.429329
 20.122	0.429329
 20.126	0.429329
 20.13	0.429329
 20.134	0.42933
 20.138	0.42933
 20.142	0.42933
 20.146	0.42933
 20.15	0.42933
 20.154	0.42933
 20.158	0.42933
 20.162	0.429331
 20.166	0.429331
 20.17	0.429331
 20.174	0.429331
 20.178	0.429331
 20.182	0.429331
 20.186	0.429331
 20.19	0.429332
 20.194	0.429332
 20.198	0.429332
 20.202	0.429332
 20.206	0.429332
 20.21	0.429332
 20.214	0.429332
 20.218	0.429333
 20.222	0.429333
 20.226	0.429333
 20.23	0.429333
 20.234	0.429333
 20.238	0.429333
 20.242	0.429333
 20.246	0.429334
 20.25	0.429334
 20.254	0.429334
 20.258	0.429334
 20.262	0.429334
 20.266	0.429334
 20.27	0.429335
 20.274	0.429335
 20.278	0.429335
 20.282	0.429335
 20.286	0.429335
 20.29	0.429335
 20.294	0.429335
 20.298	0.429336
 20.302	0.429336
 20.306	0.429336
 20.31	0.429336
 20.314	0.429336
 20.318	0.429336
 20.322	0.429336
 20.326	0.429337
 20.33	0.429337
 20.334	0.429337
 20.338	0.429337
 20.342	0.429337
 20.346	0.429337
 20.35	0.429337
 20.354	0.429338
 20.358	0.429338
 20.362	0.429338
 20.366	0.429338
 20.37	0.429338
 20.374	0.429338
 20.378	0.429338
 20.382	0.429339
 20.386	0.429339
 20.39	0.429339
 20.394	0.429339
 20.398	0.429339
 20.402	0.429339
 20.406	0.429339
 20.41	0.42934
 20.414	0.42934
 20.418	0.42934
 20.422	0.42934
 20.426	0.42934
 20.43	0.42934
 20.434	0.42934
 20.438	0.429341
 20.442	0.429341
 20.446	0.429341
 20.45	0.429341
 20.454	0.429341
 20.458	0.429341
 20.462	0.429341
 20.466	0.429342
 20.47	0.429342
 20.474	0.429342
 20.478	0.429342
 20.482	0.429342
 20.486	0.429342
 20.49	0.429343
 20.494	0.429343
 20.498	0.429343
 20.5021	0.429343
 20.5061	0.429343
 20.5101	0.429343
 20.5141	0.429343
 20.5181	0.429344
 20.5221	0.429344
 20.5261	0.429344
 20.5301	0.429344
 20.5341	0.429344
 20.5381	0.429344
 20.5421	0.429344
 20.5461	0.429345
 20.5501	0.429345
 20.5541	0.429345
 20.5581	0.429345
 20.5621	0.429345
 20.5661	0.429345
 20.5701	0.429345
 20.5741	0.429346
 20.5781	0.429346
 20.5821	0.429346
 20.5861	0.429346
 20.5901	0.429346
 20.5941	0.429346
 20.5981	0.429346
 20.6021	0.429347
 20.6061	0.429347
 20.6101	0.429347
 20.6141	0.429347
 20.6181	0.429347
 20.6221	0.429347
 20.6261	0.429347
 20.6301	0.429348
 20.6341	0.429348
 20.6381	0.429348
 20.6421	0.429348
 20.6461	0.429348
 20.6501	0.429348
 20.6541	0.429348
 20.6581	0.429349
 20.6621	0.429349
 20.6661	0.429349
 20.6701	0.429349
 20.6741	0.429349
 20.6781	0.429349
 20.6821	0.429349
 20.6861	0.42935
 20.6901	0.42935
 20.6941	0.42935
 20.6981	0.42935
 20.7021	0.42935
 20.7061	0.42935
 20.7101	0.42935
 20.7141	0.429351
 20.7181	0.429351
 20.7221	0.429351
 20.7261	0.429351
 20.7301	0.429351
 20.7341	0.429351
 20.7381	0.429352
 20.7421	0.429352
 20.7461	0.429352
 20.7501	0.429352
 20.7541	0.429352
 20.7581	0.429352
 20.7621	0.429352
 20.7661	0.429353
 20.7701	0.429353
 20.7741	0.429353
 20.7781	0.429353
 20.7821	0.429353
 20.7861	0.429353
 20.7901	0.429353
 20.7941	0.429354
 20.7981	0.429354
 20.8021	0.429354
 20.8061	0.429354
 20.8101	0.429354
 20.8141	0.429354
 20.8181	0.429354
 20.8221	0.429355
 20.8261	0.429355
 20.8301	0.429355
 20.8341	0.429355
 20.8381	0.429355
 20.8421	0.429355
 20.8461	0.429355
 20.8501	0.429356
 20.8541	0.429356
 20.8581	0.429356
 20.8621	0.429356
 20.8661	0.429356
 20.8701	0.429356
 20.8741	0.429356
 20.8781	0.429357
 20.8821	0.429357
 20.8861	0.429357
 20.8901	0.429357
 20.8941	0.429357
 20.8981	0.429357
 20.9021	0.429357
 20.9061	0.429358
 20.9101	0.429358
 20.9141	0.429358
 20.9181	0.429358
 20.9221	0.429358
 20.9261	0.429358
 20.9301	0.429358
 20.9341	0.429359
 20.9381	0.429359
 20.9421	0.429359
 20.9461	0.429359
 20.9501	0.429359
 20.9541	0.429359
 20.9581	0.429359
 20.9621	0.42936
 20.9661	0.42936
 20.9701	0.42936
 20.9741	0.42936
 20.9781	0.42936
 20.9821	0.42936
 20.9861	0.429361
 20.9901	0.429361
 20.9941	0.429361
 20.9981	0.429361
 21.0021	0.429361
 21.0061	0.429361
 21.0101	0.429361
 21.0141	0.429362
 21.0181	0.429362
 21.0221	0.429362
 21.0261	0.429362
 21.0301	0.429362
 21.0341	0.429362
 21.0381	0.429362
 21.0421	0.429363
 21.0461	0.429363
 21.0501	0.429363
 21.0541	0.429363
 21.0581	0.429363
 21.0621	0.429363
 21.0661	0.429363
 21.0701	0.429364
 21.0741	0.429364
 21.0781	0.429364
 21.0821	0.429364
 21.0861	0.429364
 21.0901	0.429364
 21.0941	0.429364
 21.0981	0.429365
 21.1021	0.429365
 21.1061	0.429365
 21.1101	0.429365
 21.1141	0.429365
 21.1181	0.429365
 21.1221	0.429365
 21.1261	0.429366
 21.1301	0.429366
 21.1341	0.429366
 21.1381	0.429366
 21.1421	0.429366
 21.1461	0.429366
 21.1501	0.429366
 21.1541	0.429367
 21.1581	0.429367
 21.1621	0.429367
 21.1661	0.429367
 21.1701	0.429367
 21.1741	0.429367
 21.1781	0.429367
 21.1821	0.429368
 21.1861	0.429368
 21.1901	0.429368
 21.1941	0.429368
 21.1981	0.429368
 21.2021	0.429368
 21.2061	0.429368
 21.2101	0.429369
 21.2141	0.429369
 21.2181	0.429369
 21.2221	0.429369
 21.2261	0.429369
 21.2301	0.429369
 21.2341	0.42937
 21.2381	0.42937
 21.2421	0.42937
 21.2461	0.42937
 21.2501	0.42937
 21.2541	0.42937
 21.2581	0.42937
 21.2621	0.429371
 21.2661	0.429371
 21.2701	0.429371
 21.2741	0.429371
 21.2781	0.429371
 21.2821	0.429371
 21.2861	0.429371
 21.2901	0.429372
 21.2941	0.429372
 21.2981	0.429372
 21.3021	0.429372
 21.3061	0.429372
 21.3101	0.429372
 21.3141	0.429372
 21.3181	0.429373
 21.3221	0.429373
 21.3261	0.429373
 21.3301	0.429373
 21.3341	0.429373
 21.3381	0.429373
 21.3421	0.429373
 21.3461	0.429374
 21.3501	0.429374
 21.3541	0.429374
 21.3581	0.429374
 21.3621	0.429374
 21.3661	0.429374
 21.3701	0.429374
 21.3741	0.429375
 21.3781	0.429375
 21.3821	0.429375
 21.3861	0.429375
 21.3901	0.429375
 21.3941	0.429375
 21.3981	0.429375
 21.4021	0.429376
 21.4061	0.429376
 21.4101	0.429376
 21.4141	0.429376
 21.4181	0.429376
 21.4221	0.429376
 21.4261	0.429376
 21.4301	0.429377
 21.4341	0.429377
 21.4381	0.429377
 21.4421	0.429377
 21.4461	0.429377
 21.4501	0.429377
 21.4541	0.429377
 21.4581	0.429378
 21.4621	0.429378
 21.4661	0.429378
 21.4701	0.429378
 21.4741	0.429378
 21.4781	0.429378
 21.4821	0.429379
 21.4861	0.429379
 21.4901	0.429379
 21.4941	0.429379
 21.4981	0.429379
 21.5022	0.429379
 21.5062	0.429379
 21.5102	0.42938
 21.5142	0.42938
 21.5182	0.42938
 21.5222	0.42938
 21.5262	0.42938
 21.5302	0.42938
 21.5342	0.42938
 21.5382	0.429381
 21.5422	0.429381
 21.5462	0.429381
 21.5502	0.429381
 21.5542	0.429381
 21.5582	0.429381
 21.5622	0.429381
 21.5662	0.429382
 21.5702	0.429382
 21.5742	0.429382
 21.5782	0.429382
 21.5822	0.429382
 21.5862	0.429382
 21.5902	0.429382
 21.5942	0.429383
 21.5982	0.429383
 21.6022	0.429383
 21.6062	0.429383
 21.6102	0.429383
 21.6142	0.429383
 21.6182	0.429383
 21.6222	0.429384
 21.6262	0.429384
 21.6302	0.429384
 21.6342	0.429384
 21.6382	0.429384
 21.6422	0.429384
 21.6462	0.429384
 21.6502	0.429385
 21.6542	0.429385
 21.6582	0.429385
 21.6622	0.429385
 21.6662	0.429385
 21.6702	0.429385
 21.6742	0.429385
 21.6782	0.429386
 21.6822	0.429386
 21.6862	0.429386
 21.6902	0.429386
 21.6942	0.429386
 21.6982	0.429386
 21.7022	0.429386
 21.7062	0.429387
 21.7102	0.429387
 21.7142	0.429387
 21.7182	0.429387
 21.7222	0.429387
 21.7262	0.429387
 21.7302	0.429388
 21.7342	0.429388
 21.7382	0.429388
 21.7422	0.429388
 21.7462	0.429388
 21.7502	0.429388
 21.7542	0.429388
 21.7582	0.429389
 21.7622	0.429389
 21.7662	0.429389
 21.7702	0.429389
 21.7742	0.429389
 21.7782	0.429389
 21.7822	0.429389
 21.7862	0.42939
 21.7902	0.42939
 21.7942	0.42939
 21.7982	0.42939
 21.8022	0.42939
 21.8062	0.42939
 21.8102	0.42939
 21.8142	0.429391
 21.8182	0.429391
 21.8222	0.429391
 21.8262	0.429391
 21.8302	0.429391
 21.8342	0.429391
 21.8382	0.429391
 21.8422	0.429392
 21.8462	0.429392
 21.8502	0.429392
 21.8542	0.429392
 21.8582	0.429392
 21.8622	0.429392
 21.8662	0.429392
 21.8702	0.429393
 21.8742	0.429393
 21.8782	0.429393
 21.8822	0.429393
 21.8862	0.429393
 21.8902	0.429393
 21.8942	0.429393
 21.8982	0.429394
 21.9022	0.429394
 21.9062	0.429394
 21.9102	0.429394
 21.9142	0.429394
 21.9182	0.429394
 21.9222	0.429394
 21.9262	0.429395
 21.9302	0.429395
 21.9342	0.429395
 21.9382	0.429395
 21.9422	0.429395
 21.9462	0.429395
 21.9502	0.429395
 21.9542	0.429396
 21.9582	0.429396
 21.9622	0.429396
 21.9662	0.429396
 21.9702	0.429396
 21.9742	0.429396
 21.9782	0.429397
 21.9822	0.429397
 21.9862	0.429397
 21.9902	0.429397
 21.9942	0.429397
 21.9982	0.429397
 22.0022	0.429397
 22.0062	0.429398
 22.0102	0.429398
 22.0142	0.429398
 22.0182	0.429398
 22.0222	0.429398
 22.0262	0.429398
 22.0302	0.429398
 22.0342	0.429399
 22.0382	0.429399
 22.0422	0.429399
 22.0462	0.429399
 22.0502	0.429399
 22.0542	0.429399
 22.0582	0.429399
 22.0622	0.4294
 22.0662	0.4294
 22.0702	0.4294
 22.0742	0.4294
 22.0782	0.4294
 22.0822	0.4294
 22.0862	0.4294
 22.0902	0.429401
 22.0942	0.429401
 22.0982	0.429401
 22.1022	0.429401
 22.1062	0.429401
 22.1102	0.429401
 22.1142	0.429401
 22.1182	0.429402
 22.1222	0.429402
 22.1262	0.429402
 22.1302	0.429402
 22.1342	0.429402
 22.1382	0.429402
 22.1422	0.429402
 22.1462	0.429403
 22.1502	0.429403
 22.1542	0.429403
 22.1582	0.429403
 22.1622	0.429403
 22.1662	0.429403
 22.1702	0.429403
 22.1742	0.429404
 22.1782	0.429404
 22.1822	0.429404
 22.1862	0.429404
 22.1902	0.429404
 22.1942	0.429404
 22.1982	0.429404
 22.2022	0.429405
 22.2062	0.429405
 22.2102	0.429405
 22.2142	0.429405
 22.2182	0.429405
 22.2222	0.429405
 22.2262	0.429406
 22.2302	0.429406
 22.2342	0.429406
 22.2382	0.429406
 22.2422	0.429406
 22.2462	0.429406
 22.2502	0.429406
 22.2542	0.429407
 22.2582	0.429407
 22.2622	0.429407
 22.2662	0.429407
 22.2702	0.429407
 22.2742	0.429407
 22.2782	0.429407
 22.2822	0.429408
 22.2862	0.429408
 22.2902	0.429408
 22.2942	0.429408
 22.2982	0.429408
 22.3022	0.429408
 22.3062	0.429408
 22.3102	0.429409
 22.3142	0.429409
 22.3182	0.429409
 22.3222	0.429409
 22.3262	0.429409
 22.3302	0.429409
 22.3342	0.429409
 22.3382	0.42941
 22.3422	0.42941
 22.3462	0.42941
 22.3502	0.42941
 22.3542	0.42941
 22.3582	0.42941
 22.3622	0.42941
 22.3662	0.429411
 22.3702	0.429411
 22.3742	0.429411
 22.3782	0.429411
 22.3822	0.429411
 22.3862	0.429411
 22.3902	0.429411
 22.3942	0.429412
 22.3982	0.429412
 22.4022	0.429412
 22.4062	0.429412
 22.4102	0.429412
 22.4142	0.429412
 22.4182	0.429412
 22.4222	0.429413
 22.4262	0.429413
 22.4302	0.429413
 22.4342	0.429413
 22.4382	0.429413
 22.4422	0.429413
 22.4462	0.429413
 22.4502	0.429414
 22.4542	0.429414
 22.4582	0.429414
 22.4622	0.429414
 22.4662	0.429414
 22.4702	0.429414
 22.4742	0.429415
 22.4782	0.429415
 22.4822	0.429415
 22.4862	0.429415
 22.4902	0.429415
 22.4942	0.429415
 22.4982	0.429415
 22.5023	0.429416
 22.5063	0.429416
 22.5103	0.429416
 22.5143	0.429416
 22.5183	0.429416
 22.5223	0.429416
 22.5263	0.429416
 22.5303	0.429417
 22.5343	0.429417
 22.5383	0.429417
 22.5423	0.429417
 22.5463	0.429417
 22.5503	0.429417
 22.5543	0.429417
 22.5583	0.429418
 22.5623	0.429418
 22.5663	0.429418
 22.5703	0.429418
 22.5743	0.429418
 22.5783	0.429418
 22.5823	0.429418
 22.5863	0.429419
 22.5903	0.429419
 22.5943	0.429419
 22.5983	0.429419
 22.6023	0.429419
 22.6063	0.429419
 22.6103	0.429419
 22.6143	0.42942
 22.6183	0.42942
 22.6223	0.42942
 22.6263	0.42942
 22.6303	0.42942
 22.6343	0.42942
 22.6383	0.42942
 22.6423	0.429421
 22.6463	0.429421
 22.6503	0.429421
 22.6543	0.429421
 22.6583	0.429421
 22.6623	0.429421
 22.6663	0.429421
 22.6703	0.429422
 22.6743	0.429422
 22.6783	0.429422
 22.6823	0.429422
 22.6863	0.429422
 22.6903	0.429422
 22.6943	0.429423
 22.6983	0.429423
 22.7023	0.429423
 22.7063	0.429423
 22.7103	0.429423
 22.7143	0.429423
 22.7183	0.429423
 22.7223	0.429424
 22.7263	0.429424
 22.7303	0.429424
 22.7343	0.429424
 22.7383	0.429424
 22.7423	0.429424
 22.7463	0.429424
 22.7503	0.429425
 22.7543	0.429425
 22.7583	0.429425
 22.7623	0.429425
 22.7663	0.429425
 22.7703	0.429425
 22.7743	0.429425
 22.7783	0.429426
 22.7823	0.429426
 22.7863	0.429426
 22.7903	0.429426
 22.7943	0.429426
 22.7983	0.429426
 22.8023	0.429426
 22.8063	0.429427
 22.8103	0.429427
 22.8143	0.429427
 22.8183	0.429427
 22.8223	0.429427
 22.8263	0.429427
 22.8303	0.429427
 22.8343	0.429428
 22.8383	0.429428
 22.8423	0.429428
 22.8463	0.429428
 22.8503	0.429428
 22.8543	0.429428
 22.8583	0.429428
 22.8623	0.429429
 22.8663	0.429429
 22.8703	0.429429
 22.8743	0.429429
 22.8783	0.429429
 22.8823	0.429429
 22.8863	0.429429
 22.8903	0.42943
 22.8943	0.42943
 22.8983	0.42943
 22.9023	0.42943
 22.9063	0.42943
 22.9103	0.42943
 22.9143	0.42943
 22.9183	0.429431
 22.9223	0.429431
 22.9263	0.429431
 22.9303	0.429431
 22.9343	0.429431
 22.9383	0.429431
 22.9423	0.429432
 22.9463	0.429432
 22.9503	0.429432
 22.9543	0.429432
 22.9583	0.429432
 22.9623	0.429432
 22.9663	0.429432
 22.9703	0.429433
 22.9743	0.429433
 22.9783	0.429433
 22.9823	0.429433
 22.9863	0.429433
 22.9903	0.429433
 22.9943	0.429433
 22.9983	0.429434
 23.0023	0.429434
 23.0063	0.429434
 23.0103	0.429434
 23.0143	0.429434
 23.0183	0.429434
 23.0223	0.429434
 23.0263	0.429435
 23.0303	0.429435
 23.0343	0.429435
 23.0383	0.429435
 23.0423	0.429435
 23.0463	0.429435
 23.0503	0.429435
 23.0543	0.429436
 23.0583	0.429436
 23.0623	0.429436
 23.0663	0.429436
 23.0703	0.429436
 23.0743	0.429436
 23.0783	0.429436
 23.0823	0.429437
 23.0863	0.429437
 23.0903	0.429437
 23.0943	0.429437
 23.0983	0.429437
 23.1023	0.429437
 23.1063	0.429437
 23.1103	0.429438
 23.1143	0.429438
 23.1183	0.429438
 23.1223	0.429438
 23.1263	0.429438
 23.1303	0.429438
 23.1343	0.429438
 23.1383	0.429439
 23.1423	0.429439
 23.1463	0.429439
 23.1503	0.429439
 23.1543	0.429439
 23.1583	0.429439
 23.1623	0.429439
 23.1663	0.42944
 23.1703	0.42944
 23.1743	0.42944
 23.1783	0.42944
 23.1823	0.42944
 23.1863	0.42944
 23.1903	0.429441
 23.1943	0.429441
 23.1983	0.429441
 23.2023	0.429441
 23.2063	0.429441
 23.2103	0.429441
 23.2143	0.429441
 23.2183	0.429442
 23.2223	0.429442
 23.2263	0.429442
 23.2303	0.429442
 23.2343	0.429442
 23.2383	0.429442
 23.2423	0.429442
 23.2463	0.429443
 23.2503	0.429443
 23.2543	0.429443
 23.2583	0.429443
 23.2623	0.429443
 23.2663	0.429443
 23.2703	0.429443
 23.2743	0.429444
 23.2783	0.429444
 23.2823	0.429444
 23.2863	0.429444
 23.2903	0.429444
 23.2943	0.429444
 23.2983	0.429444
 23.3023	0.429445
 23.3063	0.429445
 23.3103	0.429445
 23.3143	0.429445
 23.3183	0.429445
 23.3223	0.429445
 23.3263	0.429445
 23.3303	0.429446
 23.3343	0.429446
 23.3383	0.429446
 23.3423	0.429446
 23.3463	0.429446
 23.3503	0.429446
 23.3543	0.429446
 23.3583	0.429447
 23.3623	0.429447
 23.3663	0.429447
 23.3703	0.429447
 23.3743	0.429447
 23.3783	0.429447
 23.3823	0.429447
 23.3863	0.429448
 23.3903	0.429448
 23.3943	0.429448
 23.3983	0.429448
 23.4023	0.429448
 23.4063	0.429448
 23.4103	0.429448
 23.4143	0.429449
 23.4183	0.429449
 23.4223	0.429449
 23.4263	0.429449
 23.4303	0.429449
 23.4343	0.429449
 23.4383	0.42945
 23.4423	0.42945
 23.4463	0.42945
 23.4503	0.42945
 23.4543	0.42945
 23.4583	0.42945
 23.4623	0.42945
 23.4663	0.429451
 23.4703	0.429451
 23.4743	0.429451
 23.4783	0.429451
 23.4823	0.429451
 23.4863	0.429451
 23.4903	0.429451
 23.4943	0.429452
 23.4983	0.429452
 23.5024	0.429452
 23.5064	0.429452
 23.5104	0.429452
 23.5144	0.429452
 23.5184	0.429452
 23.5224	0.429453
 23.5264	0.429453
 23.5304	0.429453
 23.5344	0.429453
 23.5384	0.429453
 23.5424	0.429453
 23.5464	0.429453
 23.5504	0.429454
 23.5544	0.429454
 23.5584	0.429454
 23.5624	0.429454
 23.5664	0.429454
 23.5704	0.429454
 23.5744	0.429454
 23.5784	0.429455
 23.5824	0.429455
 23.5864	0.429455
 23.5904	0.429455
 23.5944	0.429455
 23.5984	0.429455
 23.6024	0.429455
 23.6064	0.429456
 23.6104	0.429456
 23.6144	0.429456
 23.6184	0.429456
 23.6224	0.429456
 23.6264	0.429456
 23.6304	0.429456
 23.6344	0.429457
 23.6384	0.429457
 23.6424	0.429457
 23.6464	0.429457
 23.6504	0.429457
 23.6544	0.429457
 23.6584	0.429457
 23.6624	0.429458
 23.6664	0.429458
 23.6704	0.429458
 23.6744	0.429458
 23.6784	0.429458
 23.6824	0.429458
 23.6864	0.429459
 23.6904	0.429459
 23.6944	0.429459
 23.6984	0.429459
 23.7024	0.429459
 23.7064	0.429459
 23.7104	0.429459
 23.7144	0.42946
 23.7184	0.42946
 23.7224	0.42946
 23.7264	0.42946
 23.7304	0.42946
 23.7344	0.42946
 23.7384	0.42946
 23.7424	0.429461
 23.7464	0.429461
 23.7504	0.429461
 23.7544	0.429461
 23.7584	0.429461
 23.7624	0.429461
 23.7664	0.429461
 23.7704	0.429462
 23.7744	0.429462
 23.7784	0.429462
 23.7824	0.429462
 23.7864	0.429462
 23.7904	0.429462
 23.7944	0.429462
 23.7984	0.429463
 23.8024	0.429463
 23.8064	0.429463
 23.8104	0.429463
 23.8144	0.429463
 23.8184	0.429463
 23.8224	0.429463
 23.8264	0.429464
 23.8304	0.429464
 23.8344	0.429464
 23.8384	0.429464
 23.8424	0.429464
 23.8464	0.429464
 23.8504	0.429464
 23.8544	0.429465
 23.8584	0.429465
 23.8624	0.429465
 23.8664	0.429465
 23.8704	0.429465
 23.8744	0.429465
 23.8784	0.429465
 23.8824	0.429466
 23.8864	0.429466
 23.8904	0.429466
 23.8944	0.429466
 23.8984	0.429466
 23.9024	0.429466
 23.9064	0.429466
 23.9104	0.429467
 23.9144	0.429467
 23.9184	0.429467
 23.9224	0.429467
 23.9264	0.429467
 23.9304	0.429467
 23.9344	0.429468
 23.9384	0.429468
 23.9424	0.429468
 23.9464	0.429468
 23.9504	0.429468
 23.9544	0.429468
 23.9584	0.429468
 23.9624	0.429469
 23.9664	0.429469
 23.9704	0.429469
 23.9744	0.429469
 23.9784	0.429469
 23.9824	0.429469
 23.9864	0.429469
 23.9904	0.42947
 23.9944	0.42947
 23.9984	0.42947
 24.0024	0.42947
 24.0064	0.42947
 24.0104	0.42947
 24.0144	0.42947
 24.0184	0.429471
 24.0224	0.429471
 24.0264	0.429471
 24.0304	0.429471
 24.0344	0.429471
 24.0384	0.429471
 24.0424	0.429471
 24.0464	0.429472
 24.0504	0.429472
 24.0544	0.429472
 24.0584	0.429472
 24.0624	0.429472
 24.0664	0.429472
 24.0704	0.429472
 24.0744	0.429473
 24.0784	0.429473
 24.0824	0.429473
 24.0864	0.429473
 24.0904	0.429473
 24.0944	0.429473
 24.0984	0.429473
 24.1024	0.429474
 24.1064	0.429474
 24.1104	0.429474
 24.1144	0.429474
 24.1184	0.429474
 24.1224	0.429474
 24.1264	0.429474
 24.1304	0.429475
 24.1344	0.429475
 24.1384	0.429475
 24.1424	0.429475
 24.1464	0.429475
 24.1504	0.429475
 24.1544	0.429475
 24.1584	0.429476
 24.1624	0.429476
 24.1664	0.429476
 24.1704	0.429476
 24.1744	0.429476
 24.1784	0.429476
 24.1824	0.429477
 24.1864	0.429477
 24.1904	0.429477
 24.1944	0.429477
 24.1984	0.429477
 24.2024	0.429477
 24.2064	0.429477
 24.2104	0.429478
 24.2144	0.429478
 24.2184	0.429478
 24.2224	0.429478
 24.2264	0.429478
 24.2304	0.429478
 24.2344	0.429478
 24.2384	0.429479
 24.2424	0.429479
 24.2464	0.429479
 24.2504	0.429479
 24.2544	0.429479
 24.2584	0.429479
 24.2624	0.429479
 24.2664	0.42948
 24.2704	0.42948
 24.2744	0.42948
 24.2784	0.42948
 24.2824	0.42948
 24.2864	0.42948
 24.2904	0.42948
 24.2944	0.429481
 24.2984	0.429481
 24.3024	0.429481
 24.3064	0.429481
 24.3104	0.429481
 24.3144	0.429481
 24.3184	0.429481
 24.3224	0.429482
 24.3264	0.429482
 24.3304	0.429482
 24.3344	0.429482
 24.3384	0.429482
 24.3424	0.429482
 24.3464	0.429482
 24.3504	0.429483
 24.3544	0.429483
 24.3584	0.429483
 24.3624	0.429483
 24.3664	0.429483
 24.3704	0.429483
 24.3744	0.429483
 24.3784	0.429484
 24.3824	0.429484
 24.3864	0.429484
 24.3904	0.429484
 24.3944	0.429484
 24.3984	0.429484
 24.4024	0.429484
 24.4064	0.429485
 24.4104	0.429485
 24.4144	0.429485
 24.4184	0.429485
 24.4224	0.429485
 24.4264	0.429485
 24.4304	0.429486
 24.4344	0.429486
 24.4384	0.429486
 24.4424	0.429486
 24.4464	0.429486
 24.4504	0.429486
 24.4544	0.429486
 24.4584	0.429487
 24.4624	0.429487
 24.4664	0.429487
 24.4704	0.429487
 24.4744	0.429487
 24.4784	0.429487
 24.4824	0.429487
 24.4864	0.429488
 24.4904	0.429488
 24.4944	0.429488
 24.4984	0.429488
 24.5025	0.429488
 24.5065	0.429488
 24.5105	0.429488
 24.5145	0.429489
 24.5185	0.429489
 24.5225	0.429489
 24.5265	0.429489
 24.5305	0.429489
 24.5345	0.429489
 24.5385	0.429489
 24.5425	0.42949
 24.5465	0.42949
 24.5505	0.42949
 24.5545	0.42949
 24.5585	0.42949
 24.5625	0.42949
 24.5665	0.42949
 24.5705	0.429491
 24.5745	0.429491
 24.5785	0.429491
 24.5825	0.429491
 24.5865	0.429491
 24.5905	0.429491
 24.5945	0.429491
 24.5985	0.429492
 24.6025	0.429492
 24.6065	0.429492
 24.6105	0.429492
 24.6145	0.429492
 24.6185	0.429492
 24.6225	0.429492
 24.6265	0.429493
 24.6305	0.429493
 24.6345	0.429493
 24.6385	0.429493
 24.6425	0.429493
 24.6465	0.429493
 24.6505	0.429493
 24.6545	0.429494
 24.6585	0.429494
 24.6625	0.429494
 24.6665	0.429494
 24.6705	0.429494
 24.6745	0.429494
 24.6785	0.429495
 24.6825	0.429495
 24.6865	0.429495
 24.6905	0.429495
 24.6945	0.429495
 24.6985	0.429495
 24.7025	0.429495
 24.7065	0.429496
 24.7105	0.429496
 24.7145	0.429496
 24.7185	0.429496
 24.7225	0.429496
 24.7265	0.429496
 24.7305	0.429496
 24.7345	0.429497
 24.7385	0.429497
 24.7425	0.429497
 24.7465	0.429497
 24.7505	0.429497
 24.7545	0.429497
 24.7585	0.429497
 24.7625	0.429498
 24.7665	0.429498
 24.7705	0.429498
 24.7745	0.429498
 24.7785	0.429498
 24.7825	0.429498
 24.7865	0.429498
 24.7905	0.429499
 24.7945	0.429499
 24.7985	0.429499
 24.8025	0.429499
 24.8065	0.429499
 24.8105	0.429499
 24.8145	0.429499
 24.8185	0.4295
 24.8225	0.4295
 24.8265	0.4295
 24.8305	0.4295
 24.8345	0.4295
 24.8385	0.4295
 24.8425	0.4295
 24.8465	0.429501
 24.8505	0.429501
 24.8545	0.429501
 24.8585	0.429501
 24.8625	0.429501
 24.8665	0.429501
 24.8705	0.429501
 24.8745	0.429502
 24.8785	0.429502
 24.8825	0.429502
 24.8865	0.429502
 24.8905	0.429502
 24.8945	0.429502
 24.8985	0.429503
 24.9025	0.429503
 24.9065	0.429503
 24.9105	0.429503
 24.9145	0.429503
 24.9185	0.429503
 24.9225	0.429503
 24.9265	0.429504
 24.9305	0.429504
 24.9345	0.429504
 24.9385	0.429504
 24.9425	0.429504
 24.9465	0.429504
 24.9505	0.429504
 24.9545	0.429505
 24.9585	0.429505
 24.9625	0.429505
 24.9665	0.429505
 24.9705	0.429505
 24.9745	0.429505
 24.9785	0.429505
 24.9825	0.429506
 24.9865	0.429506
 24.9905	0.429506
 24.9945	0.429506
 24.9985	0.429506
 25.0025	0.429506
 25.0065	0.429507
 25.0105	0.429507
 25.0145	0.429507
 25.0185	0.429507
 25.0225	0.429507
 25.0265	0.429508
 25.0305	0.429508
 25.0345	0.429508
 25.0385	0.429508
 25.0425	0.429508
 25.0465	0.429509
 25.0505	0.429509
 25.0545	0.429509
 25.0585	0.429509
 25.0625	0.42951
 25.0665	0.42951
 25.0705	0.42951
 25.0745	0.42951
 25.0785	0.42951
 25.0825	0.429511
 25.0865	0.429511
 25.0905	0.429511
 25.0945	0.429511
 25.0985	0.429512
 25.1025	0.429512
 25.1065	0.429512
 25.1105	0.429512
 25.1145	0.429512
 25.1185	0.429513
 25.1225	0.429513
 25.1265	0.429513
 25.1305	0.429513
 25.1345	0.429514
 25.1385	0.429514
 25.1425	0.429514
 25.1465	0.429514
 25.1505	0.429514
 25.1545	0.429515
 25.1585	0.429515
 25.1625	0.429515
 25.1665	0.429515
 25.1705	0.429515
 25.1745	0.429516
 25.1785	0.429516
 25.1825	0.429516
 25.1865	0.429516
 25.1905	0.429517
 25.1945	0.429517
 25.1985	0.429517
 25.2025	0.429517
 25.2065	0.429517
 25.2105	0.429518
 25.2145	0.429518
 25.2185	0.429518
 25.2225	0.429518
 25.2265	0.429519
 25.2305	0.429519
 25.2345	0.429519
 25.2385	0.429519
 25.2425	0.429519
 25.2465	0.42952
 25.2505	0.42952
 25.2545	0.42952
 25.2585	0.42952
 25.2625	0.42952
 25.2665	0.429521
 25.2705	0.429521
 25.2745	0.429521
 25.2785	0.429521
 25.2825	0.429522
 25.2865	0.429522
 25.2905	0.429522
 25.2945	0.429522
 25.2985	0.429522
 25.3025	0.429523
 25.3065	0.429523
 25.3105	0.429523
 25.3145	0.429523
 25.3185	0.429524
 25.3225	0.429524
 25.3265	0.429524
 25.3305	0.429524
 25.3345	0.429524
 25.3385	0.429525
 25.3425	0.429525
 25.3465	0.429525
 25.3505	0.429525
 25.3545	0.429525
 25.3585	0.429526
 25.3625	0.429526
 25.3665	0.429526
 25.3705	0.429526
 25.3745	0.429527
 25.3785	0.429527
 25.3825	0.429527
 25.3865	0.429527
 25.3905	0.429527
 25.3945	0.429528
 25.3985	0.429528
 25.4025	0.429528
 25.4065	0.429528
 25.4105	0.429529
 25.4145	0.429529
 25.4185	0.429529
 25.4225	0.429529
 25.4265	0.429529
 25.4305	0.42953
 25.4345	0.42953
 25.4385	0.42953
 25.4425	0.42953
 25.4465	0.42953
 25.4505	0.429531
 25.4545	0.429531
 25.4585	0.429531
 25.4625	0.429531
 25.4665	0.429532
 25.4705	0.429532
 25.4745	0.429532
 25.4785	0.429532
 25.4825	0.429532
 25.4865	0.429533
 25.4905	0.429533
 25.4945	0.429533
 25.4985	0.429533
 25.5026	0.429534
 25.5066	0.429534
 25.5106	0.429534
 25.5146	0.429534
 25.5186	0.429534
 25.5226	0.429535
 25.5266	0.429535
 25.5306	0.429535
 25.5346	0.429535
 25.5386	0.429536
 25.5426	0.429536
 25.5466	0.429536
 25.5506	0.429536
 25.5546	0.429536
 25.5586	0.429537
 25.5626	0.429537
 25.5666	0.429537
 25.5706	0.429537
 25.5746	0.429537
 25.5786	0.429538
 25.5826	0.429538
 25.5866	0.429538
 25.5906	0.429538
 25.5946	0.429539
 25.5986	0.429539
 25.6026	0.429539
 25.6066	0.429539
 25.6106	0.429539
 25.6146	0.42954
 25.6186	0.42954
 25.6226	0.42954
 25.6266	0.42954
 25.6306	0.429541
 25.6346	0.429541
 25.6386	0.429541
 25.6426	0.429541
 25.6466	0.429541
 25.6506	0.429542
 25.6546	0.429542
 25.6586	0.429542
 25.6626	0.429542
 25.6666	0.429542
 25.6706	0.429543
 25.6746	0.429543
 25.6786	0.429543
 25.6826	0.429543
 25.6866	0.429544
 25.6906	0.429544
 25.6946	0.429544
 25.6986	0.429544
 25.7026	0.429544
 25.7066	0.429545
 25.7106	0.429545
 25.7146	0.429545
 25.7186	0.429545
 25.7226	0.429546
 25.7266	0.429546
 25.7306	0.429546
 25.7346	0.429546
 25.7386	0.429546
 25.7426	0.429547
 25.7466	0.429547
 25.7506	0.429547
 25.7546	0.429547
 25.7586	0.429547
 25.7626	0.429548
 25.7666	0.429548
 25.7706	0.429548
 25.7746	0.429548
 25.7786	0.429549
 25.7826	0.429549
 25.7866	0.429549
 25.7906	0.429549
 25.7946	0.429549
 25.7986	0.42955
 25.8026	0.42955
 25.8066	0.42955
 25.8106	0.42955
 25.8146	0.429551
 25.8186	0.429551
 25.8226	0.429551
 25.8266	0.429551
 25.8306	0.429551
 25.8346	0.429552
 25.8386	0.429552
 25.8426	0.429552
 25.8466	0.429552
 25.8506	0.429552
 25.8546	0.429553
 25.8586	0.429553
 25.8626	0.429553
 25.8666	0.429553
 25.8706	0.429554
 25.8746	0.429554
 25.8786	0.429554
 25.8826	0.429554
 25.8866	0.429554
 25.8906	0.429555
 25.8946	0.429555
 25.8986	0.429555
 25.9026	0.429555
 25.9066	0.429556
 25.9106	0.429556
 25.9146	0.429556
 25.9186	0.429556
 25.9226	0.429556
 25.9266	0.429557
 25.9306	0.429557
 25.9346	0.429557
 25.9386	0.429557
 25.9426	0.429558
 25.9466	0.429558
 25.9506	0.429558
 25.9546	0.429558
 25.9586	0.429558
 25.9626	0.429559
 25.9666	0.429559
 25.9706	0.429559
 25.9746	0.429559
 25.9786	0.429559
 25.9826	0.42956
 25.9866	0.42956
 25.9906	0.42956
 25.9946	0.42956
 25.9986	0.429561
 26.0026	0.429561
 26.0066	0.429561
 26.0106	0.429561
 26.0146	0.429561
 26.0186	0.429562
 26.0226	0.429562
 26.0266	0.429562
 26.0306	0.429562
 26.0346	0.429563
 26.0386	0.429563
 26.0426	0.429563
 26.0466	0.429563
 26.0506	0.429563
 26.0546	0.429564
 26.0586	0.429564
 26.0626	0.429564
 26.0666	0.429564
 26.0706	0.429564
 26.0746	0.429565
 26.0786	0.429565
 26.0826	0.429565
 26.0866	0.429565
 26.0906	0.429566
 26.0946	0.429566
 26.0986	0.429566
 26.1026	0.429566
 26.1066	0.429566
 26.1106	0.429567
 26.1146	0.429567
 26.1186	0.429567
 26.1226	0.429567
 26.1266	0.429568
 26.1306	0.429568
 26.1346	0.429568
 26.1386	0.429568
 26.1426	0.429568
 26.1466	0.429569
 26.1506	0.429569
 26.1546	0.429569
 26.1586	0.429569
 26.1626	0.429569
 26.1666	0.42957
 26.1706	0.42957
 26.1746	0.42957
 26.1786	0.42957
 26.1826	0.429571
 26.1866	0.429571
 26.1906	0.429571
 26.1946	0.429571
 26.1986	0.429571
 26.2026	0.429572
 26.2066	0.429572
 26.2106	0.429572
 26.2146	0.429572
 26.2186	0.429573
 26.2226	0.429573
 26.2266	0.429573
 26.2306	0.429573
 26.2346	0.429573
 26.2386	0.429574
 26.2426	0.429574
 26.2466	0.429574
 26.2506	0.429574
 26.2546	0.429574
 26.2586	0.429575
 26.2626	0.429575
 26.2666	0.429575
 26.2706	0.429575
 26.2746	0.429576
 26.2786	0.429576
 26.2826	0.429576
 26.2866	0.429576
 26.2906	0.429576
 26.2946	0.429577
 26.2986	0.429577
 26.3026	0.429577
 26.3066	0.429577
 26.3106	0.429578
 26.3146	0.429578
 26.3186	0.429578
 26.3226	0.429578
 26.3266	0.429578
 26.3306	0.429579
 26.3346	0.429579
 26.3386	0.429579
 26.3426	0.429579
 26.3466	0.429579
 26.3506	0.42958
 26.3546	0.42958
 26.3586	0.42958
 26.3626	0.42958
 26.3666	0.429581
 26.3706	0.429581
 26.3746	0.429581
 26.3786	0.429581
 26.3826	0.429581
 26.3866	0.429582
 26.3906	0.429582
 26.3946	0.429582
 26.3986	0.429582
 26.4026	0.429583
 26.4066	0.429583
 26.4106	0.429583
 26.4146	0.429583
 26.4186	0.429583
 26.4226	0.429584
 26.4266	0.429584
 26.4306	0.429584
 26.4346	0.429584
 26.4386	0.429585
 26.4426	0.429585
 26.4466	0.429585
 26.4506	0.429585
 26.4546	0.429585
 26.4586	0.429586
 26.4626	0.429586
 26.4666	0.429586
 26.4706	0.429586
 26.4746	0.429586
 26.4786	0.429587
 26.4826	0.429587
 26.4866	0.429587
 26.4906	0.429587
 26.4946	0.429588
 26.4986	0.429588
 26.5027	0.429588
 26.5067	0.429588
 26.5107	0.429588
 26.5147	0.429589
 26.5187	0.429589
 26.5227	0.429589
 26.5267	0.429589
 26.5307	0.42959
 26.5347	0.42959
 26.5387	0.42959
 26.5427	0.42959
 26.5467	0.42959
 26.5507	0.429591
 26.5547	0.429591
 26.5587	0.429591
 26.5627	0.429591
 26.5667	0.429591
 26.5707	0.429592
 26.5747	0.429592
 26.5787	0.429592
 26.5827	0.429592
 26.5867	0.429593
 26.5907	0.429593
 26.5947	0.429593
 26.5987	0.429593
 26.6027	0.429593
 26.6067	0.429594
 26.6107	0.429594
 26.6147	0.429594
 26.6187	0.429594
 26.6227	0.429595
 26.6267	0.429595
 26.6307	0.429595
 26.6347	0.429595
 26.6387	0.429595
 26.6427	0.429596
 26.6467	0.429596
 26.6507	0.429596
 26.6547	0.429596
 26.6587	0.429596
 26.6627	0.429597
 26.6667	0.429597
 26.6707	0.429597
 26.6747	0.429597
 26.6787	0.429598
 26.6827	0.429598
 26.6867	0.429598
 26.6907	0.429598
 26.6947	0.429598
 26.6987	0.429599
 26.7027	0.429599
 26.7067	0.429599
 26.7107	0.429599
 26.7147	0.4296
 26.7187	0.4296
 26.7227	0.4296
 26.7267	0.4296
 26.7307	0.4296
 26.7347	0.429601
 26.7387	0.429601
 26.7427	0.429601
 26.7467	0.429601
 26.7507	0.429601
 26.7547	0.429602
 26.7587	0.429602
 26.7627	0.429602
 26.7667	0.429602
 26.7707	0.429603
 26.7747	0.429603
 26.7787	0.429603
 26.7827	0.429603
 26.7867	0.429603
 26.7907	0.429604
 26.7947	0.429604
 26.7987	0.429604
 26.8027	0.429604
 26.8067	0.429605
 26.8107	0.429605
 26.8147	0.429605
 26.8187	0.429605
 26.8227	0.429605
 26.8267	0.429606
 26.8307	0.429606
 26.8347	0.429606
 26.8387	0.429606
 26.8427	0.429607
 26.8467	0.429607
 26.8507	0.429607
 26.8547	0.429607
 26.8587	0.429607
 26.8627	0.429608
 26.8667	0.429608
 26.8707	0.429608
 26.8747	0.429608
 26.8787	0.429608
 26.8827	0.429609
 26.8867	0.429609
 26.8907	0.429609
 26.8947	0.429609
 26.8987	0.42961
 26.9027	0.42961
 26.9067	0.42961
 26.9107	0.42961
 26.9147	0.42961
 26.9187	0.429611
 26.9227	0.429611
 26.9267	0.429611
 26.9307	0.429611
 26.9347	0.429612
 26.9387	0.429612
 26.9427	0.429612
 26.9467	0.429612
 26.9507	0.429612
 26.9547	0.429613
 26.9587	0.429613
 26.9627	0.429613
 26.9667	0.429613
 26.9707	0.429613
 26.9747	0.429614
 26.9787	0.429614
 26.9827	0.429614
 26.9867	0.429614
 26.9907	0.429615
 26.9947	0.429615
 26.9987	0.429615
 27.0027	0.429615
 27.0067	0.429615
 27.0107	0.429616
 27.0147	0.429616
 27.0187	0.429616
 27.0227	0.429616
 27.0267	0.429617
 27.0307	0.429617
 27.0347	0.429617
 27.0387	0.429617
 27.0427	0.429617
 27.0467	0.429618
 27.0507	0.429618
 27.0547	0.429618
 27.0587	0.429618
 27.0627	0.429618
 27.0667	0.429619
 27.0707	0.429619
 27.0747	0.429619
 27.0787	0.429619
 27.0827	0.42962
 27.0867	0.42962
 27.0907	0.42962
 27.0947	0.42962
 27.0987	0.42962
 27.1027	0.429621
 27.1067	0.429621
 27.1107	0.429621
 27.1147	0.429621
 27.1187	0.429622
 27.1227	0.429622
 27.1267	0.429622
 27.1307	0.429622
 27.1347	0.429622
 27.1387	0.429623
 27.1427	0.429623
 27.1467	0.429623
 27.1507	0.429623
 27.1547	0.429623
 27.1587	0.429624
 27.1627	0.429624
 27.1667	0.429624
 27.1707	0.429624
 27.1747	0.429625
 27.1787	0.429625
 27.1827	0.429625
 27.1867	0.429625
 27.1907	0.429625
 27.1947	0.429626
 27.1987	0.429626
 27.2027	0.429626
 27.2067	0.429626
 27.2107	0.429627
 27.2147	0.429627
 27.2187	0.429627
 27.2227	0.429627
 27.2267	0.429627
 27.2307	0.429628
 27.2347	0.429628
 27.2387	0.429628
 27.2427	0.429628
 27.2467	0.429629
 27.2507	0.429629
 27.2547	0.429629
 27.2587	0.429629
 27.2627	0.429629
 27.2667	0.42963
 27.2707	0.42963
 27.2747	0.42963
 27.2787	0.42963
 27.2827	0.42963
 27.2867	0.429631
 27.2907	0.429631
 27.2947	0.429631
 27.2987	0.429631
 27.3027	0.429632
 27.3067	0.429632
 27.3107	0.429632
 27.3147	0.429632
 27.3187	0.429632
 27.3227	0.429633
 27.3267	0.429633
 27.3307	0.429633
 27.3347	0.429633
 27.3387	0.429634
 27.3427	0.429634
 27.3467	0.429634
 27.3507	0.429634
 27.3547	0.429634
 27.3587	0.429635
 27.3627	0.429635
 27.3667	0.429635
 27.3707	0.429635
 27.3747	0.429635
 27.3787	0.429636
 27.3827	0.429636
 27.3867	0.429636
 27.3907	0.429636
 27.3947	0.429637
 27.3987	0.429637
 27.4027	0.429637
 27.4067	0.429637
 27.4107	0.429637
 27.4147	0.429638
 27.4187	0.429638
 27.4227	0.429638
 27.4267	0.429638
 27.4307	0.429639
 27.4347	0.429639
 27.4387	0.429639
 27.4427	0.429639
 27.4467	0.429639
 27.4507	0.42964
 27.4547	0.42964
 27.4587	0.42964
 27.4627	0.42964
 27.4667	0.42964
 27.4707	0.429641
 27.4747	0.429641
 27.4787	0.429641
 27.4827	0.429641
 27.4867	0.429642
 27.4907	0.429642
 27.4947	0.429642
 27.4987	0.429642
 27.5028	0.429642
 27.5068	0.429643
 27.5108	0.429643
 27.5148	0.429643
 27.5188	0.429643
 27.5228	0.429644
 27.5268	0.429644
 27.5308	0.429644
 27.5348	0.429644
 27.5388	0.429644
 27.5428	0.429645
 27.5468	0.429645
 27.5508	0.429645
 27.5548	0.429645
 27.5588	0.429645
 27.5628	0.429646
 27.5668	0.429646
 27.5708	0.429646
 27.5748	0.429646
 27.5788	0.429647
 27.5828	0.429647
 27.5868	0.429647
 27.5908	0.429647
 27.5948	0.429647
 27.5988	0.429648
 27.6028	0.429648
 27.6068	0.429648
 27.6108	0.429648
 27.6148	0.429649
 27.6188	0.429649
 27.6228	0.429649
 27.6268	0.429649
 27.6308	0.429649
 27.6348	0.42965
 27.6388	0.42965
 27.6428	0.42965
 27.6468	0.42965
 27.6508	0.42965
 27.6548	0.429651
 27.6588	0.429651
 27.6628	0.429651
 27.6668	0.429651
 27.6708	0.429652
 27.6748	0.429652
 27.6788	0.429652
 27.6828	0.429652
 27.6868	0.429652
 27.6908	0.429653
 27.6948	0.429653
 27.6988	0.429653
 27.7028	0.429653
 27.7068	0.429654
 27.7108	0.429654
 27.7148	0.429654
 27.7188	0.429654
 27.7228	0.429654
 27.7268	0.429655
 27.7308	0.429655
 27.7348	0.429655
 27.7388	0.429655
 27.7428	0.429656
 27.7468	0.429656
 27.7508	0.429656
 27.7548	0.429656
 27.7588	0.429656
 27.7628	0.429657
 27.7668	0.429657
 27.7708	0.429657
 27.7748	0.429657
 27.7788	0.429657
 27.7828	0.429658
 27.7868	0.429658
 27.7908	0.429658
 27.7948	0.429658
 27.7988	0.429659
 27.8028	0.429659
 27.8068	0.429659
 27.8108	0.429659
 27.8148	0.429659
 27.8188	0.42966
 27.8228	0.42966
 27.8268	0.42966
 27.8308	0.42966
 27.8348	0.429661
 27.8388	0.429661
 27.8428	0.429661
 27.8468	0.429661
 27.8508	0.429661
 27.8548	0.429662
 27.8588	0.429662
 27.8628	0.429662
 27.8668	0.429662
 27.8708	0.429662
 27.8748	0.429663
 27.8788	0.429663
 27.8828	0.429663
 27.8868	0.429663
 27.8908	0.429664
 27.8948	0.429664
 27.8988	0.429664
 27.9028	0.429664
 27.9068	0.429664
 27.9108	0.429665
 27.9148	0.429665
 27.9188	0.429665
 27.9228	0.429665
 27.9268	0.429666
 27.9308	0.429666
 27.9348	0.429666
 27.9388	0.429666
 27.9428	0.429666
 27.9468	0.429667
 27.9508	0.429667
 27.9548	0.429667
 27.9588	0.429667
 27.9628	0.429667
 27.9668	0.429668
 27.9708	0.429668
 27.9748	0.429668
 27.9788	0.429668
 27.9828	0.429669
 27.9868	0.429669
 27.9908	0.429669
 27.9948	0.429669
 27.9988	0.429669
 28.0028	0.42967
 28.0068	0.42967
 28.0108	0.42967
 28.0148	0.42967
 28.0188	0.429671
 28.0228	0.429671
 28.0268	0.429671
 28.0308	0.429671
 28.0348	0.429671
 28.0388	0.429672
 28.0428	0.429672
 28.0468	0.429672
 28.0508	0.429672
 28.0548	0.429672
 28.0588	0.429673
 28.0628	0.429673
 28.0668	0.429673
 28.0708	0.429673
 28.0748	0.429674
 28.0788	0.429674
 28.0828	0.429674
 28.0868	0.429674
 28.0908	0.429674
 28.0948	0.429675
 28.0988	0.429675
 28.1028	0.429675
 28.1068	0.429675
 28.1108	0.429676
 28.1148	0.429676
 28.1188	0.429676
 28.1228	0.429676
 28.1268	0.429676
 28.1308	0.429677
 28.1348	0.429677
 28.1388	0.429677
 28.1428	0.429677
 28.1468	0.429678
 28.1508	0.429678
 28.1548	0.429678
 28.1588	0.429678
 28.1628	0.429678
 28.1668	0.429679
 28.1708	0.429679
 28.1748	0.429679
 28.1788	0.429679
 28.1828	0.429679
 28.1868	0.42968
 28.1908	0.42968
 28.1948	0.42968
 28.1988	0.42968
 28.2028	0.429681
 28.2068	0.429681
 28.2108	0.429681
 28.2148	0.429681
 28.2188	0.429681
 28.2228	0.429682
 28.2268	0.429682
 28.2308	0.429682
 28.2348	0.429682
 28.2388	0.429683
 28.2428	0.429683
 28.2468	0.429683
 28.2508	0.429683
 28.2548	0.429683
 28.2588	0.429684
 28.2628	0.429684
 28.2668	0.429684
 28.2708	0.429684
 28.2748	0.429684
 28.2788	0.429685
 28.2828	0.429685
 28.2868	0.429685
 28.2908	0.429685
 28.2948	0.429686
 28.2988	0.429686
 28.3028	0.429686
 28.3068	0.429686
 28.3108	0.429686
 28.3148	0.429687
 28.3188	0.429687
 28.3228	0.429687
 28.3268	0.429687
 28.3308	0.429688
 28.3348	0.429688
 28.3388	0.429688
 28.3428	0.429688
 28.3468	0.429688
 28.3508	0.429689
 28.3548	0.429689
 28.3588	0.429689
 28.3628	0.429689
 28.3668	0.429689
 28.3708	0.42969
 28.3748	0.42969
 28.3788	0.42969
 28.3828	0.42969
 28.3868	0.429691
 28.3908	0.429691
 28.3948	0.429691
 28.3988	0.429691
 28.4028	0.429691
 28.4068	0.429692
 28.4108	0.429692
 28.4148	0.429692
 28.4188	0.429692
 28.4228	0.429693
 28.4268	0.429693
 28.4308	0.429693
 28.4348	0.429693
 28.4388	0.429693
 28.4428	0.429694
 28.4468	0.429694
 28.4508	0.429694
 28.4548	0.429694
 28.4588	0.429694
 28.4628	0.429695
 28.4668	0.429695
 28.4708	0.429695
 28.4748	0.429695
 28.4788	0.429696
 28.4828	0.429696
 28.4868	0.429696
 28.4908	0.429696
 28.4948	0.429696
 28.4988	0.429697
 28.5029	0.429697
 28.5069	0.429697
 28.5109	0.429697
 28.5149	0.429698
 28.5189	0.429698
 28.5229	0.429698
 28.5269	0.429698
 28.5309	0.429698
 28.5349	0.429699
 28.5389	0.429699
 28.5429	0.429699
 28.5469	0.429699
 28.5509	0.4297
 28.5549	0.4297
 28.5589	0.4297
 28.5629	0.4297
 28.5669	0.4297
 28.5709	0.429701
 28.5749	0.429701
 28.5789	0.429701
 28.5829	0.429701
 28.5869	0.429701
 28.5909	0.429702
 28.5949	0.429702
 28.5989	0.429702
 28.6029	0.429702
 28.6069	0.429703
 28.6109	0.429703
 28.6149	0.429703
 28.6189	0.429703
 28.6229	0.429703
 28.6269	0.429704
 28.6309	0.429704
 28.6349	0.429704
 28.6389	0.429704
 28.6429	0.429705
 28.6469	0.429705
 28.6509	0.429705
 28.6549	0.429705
 28.6589	0.429705
 28.6629	0.429706
 28.6669	0.429706
 28.6709	0.429706
 28.6749	0.429706
 28.6789	0.429706
 28.6829	0.429707
 28.6869	0.429707
 28.6909	0.429707
 28.6949	0.429707
 28.6989	0.429708
 28.7029	0.429708
 28.7069	0.429708
 28.7109	0.429708
 28.7149	0.429708
 28.7189	0.429709
 28.7229	0.429709
 28.7269	0.429709
 28.7309	0.429709
 28.7349	0.42971
 28.7389	0.42971
 28.7429	0.42971
 28.7469	0.42971
 28.7509	0.42971
 28.7549	0.429711
 28.7589	0.429711
 28.7629	0.429711
 28.7669	0.429711
 28.7709	0.429711
 28.7749	0.429712
 28.7789	0.429712
 28.7829	0.429712
 28.7869	0.429712
 28.7909	0.429713
 28.7949	0.429713
 28.7989	0.429713
 28.8029	0.429713
 28.8069	0.429713
 28.8109	0.429714
 28.8149	0.429714
 28.8189	0.429714
 28.8229	0.429714
 28.8269	0.429715
 28.8309	0.429715
 28.8349	0.429715
 28.8389	0.429715
 28.8429	0.429715
 28.8469	0.429716
 28.8509	0.429716
 28.8549	0.429716
 28.8589	0.429716
 28.8629	0.429716
 28.8669	0.429717
 28.8709	0.429717
 28.8749	0.429717
 28.8789	0.429717
 28.8829	0.429718
 28.8869	0.429718
 28.8909	0.429718
 28.8949	0.429718
 28.8989	0.429718
 28.9029	0.429719
 28.9069	0.429719
 28.9109	0.429719
 28.9149	0.429719
 28.9189	0.42972
 28.9229	0.42972
 28.9269	0.42972
 28.9309	0.42972
 28.9349	0.42972
 28.9389	0.429721
 28.9429	0.429721
 28.9469	0.429721
 28.9509	0.429721
 28.9549	0.429721
 28.9589	0.429722
 28.9629	0.429722
 28.9669	0.429722
 28.9709	0.429722
 28.9749	0.429723
 28.9789	0.429723
 28.9829	0.429723
 28.9869	0.429723
 28.9909	0.429723
 28.9949	0.429724
 28.9989	0.429724
 29.0029	0.429724
 29.0069	0.429724
 29.0109	0.429725
 29.0149	0.429725
 29.0189	0.429725
 29.0229	0.429725
 29.0269	0.429725
 29.0309	0.429726
 29.0349	0.429726
 29.0389	0.429726
 29.0429	0.429726
 29.0469	0.429727
 29.0509	0.429727
 29.0549	0.429727
 29.0589	0.429727
 29.0629	0.429727
 29.0669	0.429728
 29.0709	0.429728
 29.0749	0.429728
 29.0789	0.429728
 29.0829	0.429728
 29.0869	0.429729
 29.0909	0.429729
 29.0949	0.429729
 29.0989	0.429729
 29.1029	0.42973
 29.1069	0.42973
 29.1109	0.42973
 29.1149	0.42973
 29.1189	0.42973
 29.1229	0.429731
 29.1269	0.429731
 29.1309	0.429731
 29.1349	0.429731
 29.1389	0.429732
 29.1429	0.429732
 29.1469	0.429732
 29.1509	0.429732
 29.1549	0.429732
 29.1589	0.429733
 29.1629	0.429733
 29.1669	0.429733
 29.1709	0.429733
 29.1749	0.429733
 29.1789	0.429734
 29.1829	0.429734
 29.1869	0.429734
 29.1909	0.429734
 29.1949	0.429735
 29.1989	0.429735
 29.2029	0.429735
 29.2069	0.429735
 29.2109	0.429735
 29.2149	0.429736
 29.2189	0.429736
 29.2229	0.429736
 29.2269	0.429736
 29.2309	0.429737
 29.2349	0.429737
 29.2389	0.429737
 29.2429	0.429737
 29.2469	0.429737
 29.2509	0.429738
 29.2549	0.429738
 29.2589	0.429738
 29.2629	0.429738
 29.2669	0.429738
 29.2709	0.429739
 29.2749	0.429739
 29.2789	0.429739
 29.2829	0.429739
 29.2869	0.42974
 29.2909	0.42974
 29.2949	0.42974
 29.2989	0.42974
 29.3029	0.42974
 29.3069	0.429741
 29.3109	0.429741
 29.3149	0.429741
 29.3189	0.429741
 29.3229	0.429742
 29.3269	0.429742
 29.3309	0.429742
 29.3349	0.429742
 29.3389	0.429742
 29.3429	0.429743
 29.3469	0.429743
 29.3509	0.429743
 29.3549	0.429743
 29.3589	0.429743
 29.3629	0.429744
 29.3669	0.429744
 29.3709	0.429744
 29.3749	0.429744
 29.3789	0.429745
 29.3829	0.429745
 29.3869	0.429745
 29.3909	0.429745
 29.3949	0.429745
 29.3989	0.429746
 29.4029	0.429746
 29.4069	0.429746
 29.4109	0.429746
 29.4149	0.429747
 29.4189	0.429747
 29.4229	0.429747
 29.4269	0.429747
 29.4309	0.429747
 29.4349	0.429748
 29.4389	0.429748
 29.4429	0.429748
 29.4469	0.429748
 29.4509	0.429749
 29.4549	0.429749
 29.4589	0.429749
 29.4629	0.429749
 29.4669	0.429749
 29.4709	0.42975
 29.4749	0.42975
 29.4789	0.42975
 29.4829	0.42975
 29.4869	0.42975
 29.4909	0.429751
 29.4949	0.429751
 29.4989	0.429751
 29.503	0.429751
 29.507	0.429752
 29.511	0.429752
 29.515	0.429752
 29.519	0.429752
 29.523	0.429752
 29.527	0.429753
 29.531	0.429753
 29.535	0.429753
 29.539	0.429753
 29.543	0.429754
 29.547	0.429754
 29.551	0.429754
 29.555	0.429754
 29.559	0.429754
 29.563	0.429755
 29.567	0.429755
 29.571	0.429755
 29.575	0.429755
 29.579	0.429755
 29.583	0.429756
 29.587	0.429756
 29.591	0.429756
 29.595	0.429756
 29.599	0.429757
 29.603	0.429757
 29.607	0.429757
 29.611	0.429757
 29.615	0.429757
 29.619	0.429758
 29.623	0.429758
 29.627	0.429758
 29.631	0.429758
 29.635	0.429759
 29.639	0.429759
 29.643	0.429759
 29.647	0.429759
 29.651	0.429759
 29.655	0.42976
 29.659	0.42976
 29.663	0.42976
 29.667	0.42976
 29.671	0.42976
 29.675	0.429761
 29.679	0.429761
 29.683	0.429761
 29.687	0.429761
 29.691	0.429762
 29.695	0.429762
 29.699	0.429762
 29.703	0.429762
 29.707	0.429762
 29.711	0.429763
 29.715	0.429763
 29.719	0.429763
 29.723	0.429763
 29.727	0.429764
 29.731	0.429764
 29.735	0.429764
 29.739	0.429764
 29.743	0.429764
 29.747	0.429765
 29.751	0.429765
 29.755	0.429765
 29.759	0.429765
 29.763	0.429765
 29.767	0.429766
 29.771	0.429766
 29.775	0.429766
 29.779	0.429766
 29.783	0.429767
 29.787	0.429767
 29.791	0.429767
 29.795	0.429767
 29.799	0.429767
 29.803	0.429768
 29.807	0.429768
 29.811	0.429768
 29.815	0.429768
 29.819	0.429769
 29.823	0.429769
 29.827	0.429769
 29.831	0.429769
 29.835	0.429769
 29.839	0.42977
 29.843	0.42977
 29.847	0.42977
 29.851	0.42977
 29.855	0.429771
 29.859	0.429771
 29.863	0.429771
 29.867	0.429771
 29.871	0.429771
 29.875	0.429772
 29.879	0.429772
 29.883	0.429772
 29.887	0.429772
 29.891	0.429772
 29.895	0.429773
 29.899	0.429773
 29.903	0.429773
 29.907	0.429773
 29.911	0.429774
 29.915	0.429774
 29.919	0.429774
 29.923	0.429774
 29.927	0.429774
 29.931	0.429775
 29.935	0.429775
 29.939	0.429775
 29.943	0.429775
 29.947	0.429776
 29.951	0.429776
 29.955	0.429776
 29.959	0.429776
 29.963	0.429776
 29.967	0.429777
 29.971	0.429777
 29.975	0.429777
 29.979	0.429777
 29.983	0.429777
 29.987	0.429778
 29.991	0.429778
 29.995	0.429778
 29.999	0.429778
 30.003	0.429779
 30.007	0.429779
 30.011	0.429779
 30.015	0.429779
 30.019	0.429779
 30.023	0.429779
 30.027	0.42978
 30.031	0.42978
 30.035	0.42978
 30.039	0.42978
 30.043	0.42978
 30.047	0.429781
 30.051	0.429781
 30.055	0.429781
 30.059	0.429781
 30.063	0.429781
 30.067	0.429782
 30.071	0.429782
 30.075	0.429782
 30.079	0.429782
 30.083	0.429782
 30.087	0.429782
 30.091	0.429783
 30.095	0.429783
 30.099	0.429783
 30.103	0.429783
 30.107	0.429783
 30.111	0.429784
 30.115	0.429784
 30.119	0.429784
 30.123	0.429784
 30.127	0.429784
 30.131	0.429784
 30.135	0.429785
 30.139	0.429785
 30.143	0.429785
 30.147	0.429785
 30.151	0.429785
 30.155	0.429786
 30.159	0.429786
 30.163	0.429786
 30.167	0.429786
 30.171	0.429786
 30.175	0.429787
 30.179	0.429787
 30.183	0.429787
 30.187	0.429787
 30.191	0.429787
 30.195	0.429787
 30.199	0.429788
 30.203	0.429788
 30.207	0.429788
 30.211	0.429788
 30.215	0.429788
 30.219	0.429789
 30.223	0.429789
 30.227	0.429789
 30.231	0.429789
 30.235	0.429789
 30.239	0.429789
 30.243	0.42979
 30.247	0.42979
 30.251	0.42979
 30.255	0.42979
 30.259	0.42979
 30.263	0.429791
 30.267	0.429791
 30.271	0.429791
 30.275	0.429791
 30.279	0.429791
 30.283	0.429792
 30.287	0.429792
 30.291	0.429792
 30.295	0.429792
 30.299	0.429792
 30.303	0.429792
 30.307	0.429793
 30.311	0.429793
 30.315	0.429793
 30.319	0.429793
 30.323	0.429793
 30.327	0.429794
 30.331	0.429794
 30.335	0.429794
 30.339	0.429794
 30.343	0.429794
 30.347	0.429794
 30.351	0.429795
 30.355	0.429795
 30.359	0.429795
 30.363	0.429795
 30.367	0.429795
 30.371	0.429796
 30.375	0.429796
 30.379	0.429796
 30.383	0.429796
 30.387	0.429796
 30.391	0.429797
 30.395	0.429797
 30.399	0.429797
 30.403	0.429797
 30.407	0.429797
 30.411	0.429797
 30.415	0.429798
 30.419	0.429798
 30.423	0.429798
 30.427	0.429798
 30.431	0.429798
 30.435	0.429799
 30.439	0.429799
 30.443	0.429799
 30.447	0.429799
 30.451	0.429799
 30.455	0.429799
 30.459	0.4298
 30.463	0.4298
 30.467	0.4298
 30.471	0.4298
 30.475	0.4298
 30.479	0.429801
 30.483	0.429801
 30.487	0.429801
 30.491	0.429801
 30.495	0.429801
 30.499	0.429802
 30.5031	0.429802
 30.5071	0.429802
 30.5111	0.429802
 30.5151	0.429802
 30.5191	0.429802
 30.5231	0.429803
 30.5271	0.429803
 30.5311	0.429803
 30.5351	0.429803
 30.5391	0.429803
 30.5431	0.429804
 30.5471	0.429804
 30.5511	0.429804
 30.5551	0.429804
 30.5591	0.429804
 30.5631	0.429805
 30.5671	0.429805
 30.5711	0.429805
 30.5751	0.429805
 30.5791	0.429805
 30.5831	0.429805
 30.5871	0.429806
 30.5911	0.429806
 30.5951	0.429806
 30.5991	0.429806
 30.6031	0.429806
 30.6071	0.429807
 30.6111	0.429807
 30.6151	0.429807
 30.6191	0.429807
 30.6231	0.429807
 30.6271	0.429807
 30.6311	0.429808
 30.6351	0.429808
 30.6391	0.429808
 30.6431	0.429808
 30.6471	0.429808
 30.6511	0.429809
 30.6551	0.429809
 30.6591	0.429809
 30.6631	0.429809
 30.6671	0.429809
 30.6711	0.42981
 30.6751	0.42981
 30.6791	0.42981
 30.6831	0.42981
 30.6871	0.42981
 30.6911	0.42981
 30.6951	0.429811
 30.6991	0.429811
 30.7031	0.429811
 30.7071	0.429811
 30.7111	0.429811
 30.7151	0.429812
 30.7191	0.429812
 30.7231	0.429812
 30.7271	0.429812
 30.7311	0.429812
 30.7351	0.429812
 30.7391	0.429813
 30.7431	0.429813
 30.7471	0.429813
 30.7511	0.429813
 30.7551	0.429813
 30.7591	0.429814
 30.7631	0.429814
 30.7671	0.429814
 30.7711	0.429814
 30.7751	0.429814
 30.7791	0.429815
 30.7831	0.429815
 30.7871	0.429815
 30.7911	0.429815
 30.7951	0.429815
 30.7991	0.429815
 30.8031	0.429816
 30.8071	0.429816
 30.8111	0.429816
 30.8151	0.429816
 30.8191	0.429816
 30.8231	0.429817
 30.8271	0.429817
 30.8311	0.429817
 30.8351	0.429817
 30.8391	0.429817
 30.8431	0.429817
 30.8471	0.429818
 30.8511	0.429818
 30.8551	0.429818
 30.8591	0.429818
 30.8631	0.429818
 30.8671	0.429819
 30.8711	0.429819
 30.8751	0.429819
 30.8791	0.429819
 30.8831	0.429819
 30.8871	0.42982
 30.8911	0.42982
 30.8951	0.42982
 30.8991	0.42982
 30.9031	0.42982
 30.9071	0.42982
 30.9111	0.429821
 30.9151	0.429821
 30.9191	0.429821
 30.9231	0.429821
 30.9271	0.429821
 30.9311	0.429822
 30.9351	0.429822
 30.9391	0.429822
 30.9431	0.429822
 30.9471	0.429822
 30.9511	0.429823
 30.9551	0.429823
 30.9591	0.429823
 30.9631	0.429823
 30.9671	0.429823
 30.9711	0.429823
 30.9751	0.429824
 30.9791	0.429824
 30.9831	0.429824
 30.9871	0.429824
 30.9911	0.429824
 30.9951	0.429825
 30.9991	0.429825
 31.0031	0.429825
 31.0071	0.429825
 31.0111	0.429825
 31.0151	0.429825
 31.0191	0.429826
 31.0231	0.429826
 31.0271	0.429826
 31.0311	0.429826
 31.0351	0.429826
 31.0391	0.429827
 31.0431	0.429827
 31.0471	0.429827
 31.0511	0.429827
 31.0551	0.429827
 31.0591	0.429828
 31.0631	0.429828
 31.0671	0.429828
 31.0711	0.429828
 31.0751	0.429828
 31.0791	0.429828
 31.0831	0.429829
 31.0871	0.429829
 31.0911	0.429829
 31.0951	0.429829
 31.0991	0.429829
 31.1031	0.42983
 31.1071	0.42983
 31.1111	0.42983
 31.1151	0.42983
 31.1191	0.42983
 31.1231	0.42983
 31.1271	0.429831
 31.1311	0.429831
 31.1351	0.429831
 31.1391	0.429831
 31.1431	0.429831
 31.1471	0.429832
 31.1511	0.429832
 31.1551	0.429832
 31.1591	0.429832
 31.1631	0.429832
 31.1671	0.429833
 31.1711	0.429833
 31.1751	0.429833
 31.1791	0.429833
 31.1831	0.429833
 31.1871	0.429833
 31.1911	0.429834
 31.1951	0.429834
 31.1991	0.429834
 31.2031	0.429834
 31.2071	0.429834
 31.2111	0.429835
 31.2151	0.429835
 31.2191	0.429835
 31.2231	0.429835
 31.2271	0.429835
 31.2311	0.429835
 31.2351	0.429836
 31.2391	0.429836
 31.2431	0.429836
 31.2471	0.429836
 31.2511	0.429836
 31.2551	0.429837
 31.2591	0.429837
 31.2631	0.429837
 31.2671	0.429837
 31.2711	0.429837
 31.2751	0.429838
 31.2791	0.429838
 31.2831	0.429838
 31.2871	0.429838
 31.2911	0.429838
 31.2951	0.429838
 31.2991	0.429839
 31.3031	0.429839
 31.3071	0.429839
 31.3111	0.429839
 31.3151	0.429839
 31.3191	0.42984
 31.3231	0.42984
 31.3271	0.42984
 31.3311	0.42984
 31.3351	0.42984
 31.3391	0.429841
 31.3431	0.429841
 31.3471	0.429841
 31.3511	0.429841
 31.3551	0.429841
 31.3591	0.429841
 31.3631	0.429842
 31.3671	0.429842
 31.3711	0.429842
 31.3751	0.429842
 31.3791	0.429842
 31.3831	0.429843
 31.3871	0.429843
 31.3911	0.429843
 31.3951	0.429843
 31.3991	0.429843
 31.4031	0.429843
 31.4071	0.429844
 31.4111	0.429844
 31.4151	0.429844
 31.4191	0.429844
 31.4231	0.429844
 31.4271	0.429845
 31.4311	0.429845
 31.4351	0.429845
 31.4391	0.429845
 31.4431	0.429845
 31.4471	0.429846
 31.4511	0.429846
 31.4551	0.429846
 31.4591	0.429846
 31.4631	0.429846
 31.4671	0.429846
 31.4711	0.429847
 31.4751	0.429847
 31.4791	0.429847
 31.4831	0.429847
 31.4871	0.429847
 31.4911	0.429848
 31.4951	0.429848
 31.4991	0.429848
 31.5032	0.429848
 31.5072	0.429848
 31.5112	0.429848
 31.5152	0.429849
 31.5192	0.429849
 31.5232	0.429849
 31.5272	0.429849
 31.5312	0.429849
 31.5352	0.42985
 31.5392	0.42985
 31.5432	0.42985
 31.5472	0.42985
 31.5512	0.42985
 31.5552	0.429851
 31.5592	0.429851
 31.5632	0.429851
 31.5672	0.429851
 31.5712	0.429851
 31.5752	0.429851
 31.5792	0.429852
 31.5832	0.429852
 31.5872	0.429852
 31.5912	0.429852
 31.5952	0.429852
 31.5992	0.429853
 31.6032	0.429853
 31.6072	0.429853
 31.6112	0.429853
 31.6152	0.429853
 31.6192	0.429853
 31.6232	0.429854
 31.6272	0.429854
 31.6312	0.429854
 31.6352	0.429854
 31.6392	0.429854
 31.6432	0.429855
 31.6472	0.429855
 31.6512	0.429855
 31.6552	0.429855
 31.6592	0.429855
 31.6632	0.429856
 31.6672	0.429856
 31.6712	0.429856
 31.6752	0.429856
 31.6792	0.429856
 31.6832	0.429856
 31.6872	0.429857
 31.6912	0.429857
 31.6952	0.429857
 31.6992	0.429857
 31.7032	0.429857
 31.7072	0.429858
 31.7112	0.429858
 31.7152	0.429858
 31.7192	0.429858
 31.7232	0.429858
 31.7272	0.429858
 31.7312	0.429859
 31.7352	0.429859
 31.7392	0.429859
 31.7432	0.429859
 31.7472	0.429859
 31.7512	0.42986
 31.7552	0.42986
 31.7592	0.42986
 31.7632	0.42986
 31.7672	0.42986
 31.7712	0.429861
 31.7752	0.429861
 31.7792	0.429861
 31.7832	0.429861
 31.7872	0.429861
 31.7912	0.429861
 31.7952	0.429862
 31.7992	0.429862
 31.8032	0.429862
 31.8072	0.429862
 31.8112	0.429862
 31.8152	0.429863
 31.8192	0.429863
 31.8232	0.429863
 31.8272	0.429863
 31.8312	0.429863
 31.8352	0.429864
 31.8392	0.429864
 31.8432	0.429864
 31.8472	0.429864
 31.8512	0.429864
 31.8552	0.429864
 31.8592	0.429865
 31.8632	0.429865
 31.8672	0.429865
 31.8712	0.429865
 31.8752	0.429865
 31.8792	0.429866
 31.8832	0.429866
 31.8872	0.429866
 31.8912	0.429866
 31.8952	0.429866
 31.8992	0.429866
 31.9032	0.429867
 31.9072	0.429867
 31.9112	0.429867
 31.9152	0.429867
 31.9192	0.429867
 31.9232	0.429868
 31.9272	0.429868
 31.9312	0.429868
 31.9352	0.429868
 31.9392	0.429868
 31.9432	0.429869
 31.9472	0.429869
 31.9512	0.429869
 31.9552	0.429869
 31.9592	0.429869
 31.9632	0.429869
 31.9672	0.42987
 31.9712	0.42987
 31.9752	0.42987
 31.9792	0.42987
 31.9832	0.42987
 31.9872	0.429871
 31.9912	0.429871
 31.9952	0.429871
 31.9992	0.429871
 32.0032	0.429871
 32.0072	0.429871
 32.0112	0.429872
 32.0152	0.429872
 32.0192	0.429872
 32.0232	0.429872
 32.0272	0.429872
 32.0312	0.429873
 32.0352	0.429873
 32.0392	0.429873
 32.0432	0.429873
 32.0472	0.429873
 32.0512	0.429874
 32.0552	0.429874
 32.0592	0.429874
 32.0632	0.429874
 32.0672	0.429874
 32.0712	0.429874
 32.0752	0.429875
 32.0792	0.429875
 32.0832	0.429875
 32.0872	0.429875
 32.0912	0.429875
 32.0952	0.429876
 32.0992	0.429876
 32.1032	0.429876
 32.1072	0.429876
 32.1112	0.429876
 32.1152	0.429876
 32.1192	0.429877
 32.1232	0.429877
 32.1272	0.429877
 32.1312	0.429877
 32.1352	0.429877
 32.1392	0.429878
 32.1432	0.429878
 32.1472	0.429878
 32.1512	0.429878
 32.1552	0.429878
 32.1592	0.429879
 32.1632	0.429879
 32.1672	0.429879
 32.1712	0.429879
 32.1752	0.429879
 32.1792	0.429879
 32.1832	0.42988
 32.1872	0.42988
 32.1912	0.42988
 32.1952	0.42988
 32.1992	0.42988
 32.2032	0.429881
 32.2072	0.429881
 32.2112	0.429881
 32.2152	0.429881
 32.2192	0.429881
 32.2232	0.429882
 32.2272	0.429882
 32.2312	0.429882
 32.2352	0.429882
 32.2392	0.429882
 32.2432	0.429882
 32.2472	0.429883
 32.2512	0.429883
 32.2552	0.429883
 32.2592	0.429883
 32.2632	0.429883
 32.2672	0.429884
 32.2712	0.429884
 32.2752	0.429884
 32.2792	0.429884
 32.2832	0.429884
 32.2872	0.429884
 32.2912	0.429885
 32.2952	0.429885
 32.2992	0.429885
 32.3032	0.429885
 32.3072	0.429885
 32.3112	0.429886
 32.3152	0.429886
 32.3192	0.429886
 32.3232	0.429886
 32.3272	0.429886
 32.3312	0.429887
 32.3352	0.429887
 32.3392	0.429887
 32.3432	0.429887
 32.3472	0.429887
 32.3512	0.429887
 32.3552	0.429888
 32.3592	0.429888
 32.3632	0.429888
 32.3672	0.429888
 32.3712	0.429888
 32.3752	0.429889
 32.3792	0.429889
 32.3832	0.429889
 32.3872	0.429889
 32.3912	0.429889
 32.3952	0.429889
 32.3992	0.42989
 32.4032	0.42989
 32.4072	0.42989
 32.4112	0.42989
 32.4152	0.42989
 32.4192	0.429891
 32.4232	0.429891
 32.4272	0.429891
 32.4312	0.429891
 32.4352	0.429891
 32.4392	0.429892
 32.4432	0.429892
 32.4472	0.429892
 32.4512	0.429892
 32.4552	0.429892
 32.4592	0.429892
 32.4632	0.429893
 32.4672	0.429893
 32.4712	0.429893
 32.4752	0.429893
 32.4792	0.429893
 32.4832	0.429894
 32.4872	0.429894
 32.4912	0.429894
 32.4952	0.429894
 32.4992	0.429894
 32.5033	0.429894
 32.5073	0.429895
 32.5113	0.429895
 32.5153	0.429895
 32.5193	0.429895
 32.5233	0.429895
 32.5273	0.429896
 32.5313	0.429896
 32.5353	0.429896
 32.5393	0.429896
 32.5433	0.429896
 32.5473	0.429897
 32.5513	0.429897
 32.5553	0.429897
 32.5593	0.429897
 32.5633	0.429897
 32.5673	0.429897
 32.5713	0.429898
 32.5753	0.429898
 32.5793	0.429898
 32.5833	0.429898
 32.5873	0.429898
 32.5913	0.429899
 32.5953	0.429899
 32.5993	0.429899
 32.6033	0.429899
 32.6073	0.429899
 32.6113	0.4299
 32.6153	0.4299
 32.6193	0.4299
 32.6233	0.4299
 32.6273	0.4299
 32.6313	0.4299
 32.6353	0.429901
 32.6393	0.429901
 32.6433	0.429901
 32.6473	0.429901
 32.6513	0.429901
 32.6553	0.429902
 32.6593	0.429902
 32.6633	0.429902
 32.6673	0.429902
 32.6713	0.429902
 32.6753	0.429902
 32.6793	0.429903
 32.6833	0.429903
 32.6873	0.429903
 32.6913	0.429903
 32.6953	0.429903
 32.6993	0.429904
 32.7033	0.429904
 32.7073	0.429904
 32.7113	0.429904
 32.7153	0.429904
 32.7193	0.429905
 32.7233	0.429905
 32.7273	0.429905
 32.7313	0.429905
 32.7353	0.429905
 32.7393	0.429905
 32.7433	0.429906
 32.7473	0.429906
 32.7513	0.429906
 32.7553	0.429906
 32.7593	0.429906
 32.7633	0.429907
 32.7673	0.429907
 32.7713	0.429907
 32.7753	0.429907
 32.7793	0.429907
 32.7833	0.429907
 32.7873	0.429908
 32.7913	0.429908
 32.7953	0.429908
 32.7993	0.429908
 32.8033	0.429908
 32.8073	0.429909
 32.8113	0.429909
 32.8153	0.429909
 32.8193	0.429909
 32.8233	0.429909
 32.8273	0.42991
 32.8313	0.42991
 32.8353	0.42991
 32.8393	0.42991
 32.8433	0.42991
 32.8473	0.42991
 32.8513	0.429911
 32.8553	0.429911
 32.8593	0.429911
 32.8633	0.429911
 32.8673	0.429911
 32.8713	0.429912
 32.8753	0.429912
 32.8793	0.429912
 32.8833	0.429912
 32.8873	0.429912
 32.8913	0.429912
 32.8953	0.429913
 32.8993	0.429913
 32.9033	0.429913
 32.9073	0.429913
 32.9113	0.429913
 32.9153	0.429914
 32.9193	0.429914
 32.9233	0.429914
 32.9273	0.429914
 32.9313	0.429914
 32.9353	0.429915
 32.9393	0.429915
 32.9433	0.429915
 32.9473	0.429915
 32.9513	0.429915
 32.9553	0.429915
 32.9593	0.429916
 32.9633	0.429916
 32.9673	0.429916
 32.9713	0.429916
 32.9753	0.429916
 32.9793	0.429917
 32.9833	0.429917
 32.9873	0.429917
 32.9913	0.429917
 32.9953	0.429917
 32.9993	0.429917
 33.0033	0.429918
 33.0073	0.429918
 33.0113	0.429918
 33.0153	0.429918
 33.0193	0.429918
 33.0233	0.429919
 33.0273	0.429919
 33.0313	0.429919
 33.0353	0.429919
 33.0393	0.429919
 33.0433	0.42992
 33.0473	0.42992
 33.0513	0.42992
 33.0553	0.42992
 33.0593	0.42992
 33.0633	0.42992
 33.0673	0.429921
 33.0713	0.429921
 33.0753	0.429921
 33.0793	0.429921
 33.0833	0.429921
 33.0873	0.429922
 33.0913	0.429922
 33.0953	0.429922
 33.0993	0.429922
 33.1033	0.429922
 33.1073	0.429923
 33.1113	0.429923
 33.1153	0.429923
 33.1193	0.429923
 33.1233	0.429923
 33.1273	0.429923
 33.1313	0.429924
 33.1353	0.429924
 33.1393	0.429924
 33.1433	0.429924
 33.1473	0.429924
 33.1513	0.429925
 33.1553	0.429925
 33.1593	0.429925
 33.1633	0.429925
 33.1673	0.429925
 33.1713	0.429925
 33.1753	0.429926
 33.1793	0.429926
 33.1833	0.429926
 33.1873	0.429926
 33.1913	0.429926
 33.1953	0.429927
 33.1993	0.429927
 33.2033	0.429927
 33.2073	0.429927
 33.2113	0.429927
 33.2153	0.429928
 33.2193	0.429928
 33.2233	0.429928
 33.2273	0.429928
 33.2313	0.429928
 33.2353	0.429928
 33.2393	0.429929
 33.2433	0.429929
 33.2473	0.429929
 33.2513	0.429929
 33.2553	0.429929
 33.2593	0.42993
 33.2633	0.42993
 33.2673	0.42993
 33.2713	0.42993
 33.2753	0.42993
 33.2793	0.42993
 33.2833	0.429931
 33.2873	0.429931
 33.2913	0.429931
 33.2953	0.429931
 33.2993	0.429931
 33.3033	0.429932
 33.3073	0.429932
 33.3113	0.429932
 33.3153	0.429932
 33.3193	0.429932
 33.3233	0.429933
 33.3273	0.429933
 33.3313	0.429933
 33.3353	0.429933
 33.3393	0.429933
 33.3433	0.429933
 33.3473	0.429934
 33.3513	0.429934
 33.3553	0.429934
 33.3593	0.429934
 33.3633	0.429934
 33.3673	0.429935
 33.3713	0.429935
 33.3753	0.429935
 33.3793	0.429935
 33.3833	0.429935
 33.3873	0.429935
 33.3913	0.429936
 33.3953	0.429936
 33.3993	0.429936
 33.4033	0.429936
 33.4073	0.429936
 33.4113	0.429937
 33.4153	0.429937
 33.4193	0.429937
 33.4233	0.429937
 33.4273	0.429937
 33.4313	0.429938
 33.4353	0.429938
 33.4393	0.429938
 33.4433	0.429938
 33.4473	0.429938
 33.4513	0.429938
 33.4553	0.429939
 33.4593	0.429939
 33.4633	0.429939
 33.4673	0.429939
 33.4713	0.429939
 33.4753	0.42994
 33.4793	0.42994
 33.4833	0.42994
 33.4873	0.42994
 33.4913	0.42994
 33.4953	0.429941
 33.4993	0.429941
 33.5034	0.429941
 33.5074	0.429941
 33.5114	0.429941
 33.5154	0.429941
 33.5194	0.429942
 33.5234	0.429942
 33.5274	0.429942
 33.5314	0.429942
 33.5354	0.429942
 33.5394	0.429943
 33.5434	0.429943
 33.5474	0.429943
 33.5514	0.429943
 33.5554	0.429943
 33.5594	0.429943
 33.5634	0.429944
 33.5674	0.429944
 33.5714	0.429944
 33.5754	0.429944
 33.5794	0.429944
 33.5834	0.429945
 33.5874	0.429945
 33.5914	0.429945
 33.5954	0.429945
 33.5994	0.429945
 33.6034	0.429946
 33.6074	0.429946
 33.6114	0.429946
 33.6154	0.429946
 33.6194	0.429946
 33.6234	0.429946
 33.6274	0.429947
 33.6314	0.429947
 33.6354	0.429947
 33.6394	0.429947
 33.6434	0.429947
 33.6474	0.429948
 33.6514	0.429948
 33.6554	0.429948
 33.6594	0.429948
 33.6634	0.429948
 33.6674	0.429948
 33.6714	0.429949
 33.6754	0.429949
 33.6794	0.429949
 33.6834	0.429949
 33.6874	0.429949
 33.6914	0.42995
 33.6954	0.42995
 33.6994	0.42995
 33.7034	0.42995
 33.7074	0.42995
 33.7114	0.429951
 33.7154	0.429951
 33.7194	0.429951
 33.7234	0.429951
 33.7274	0.429951
 33.7314	0.429951
 33.7354	0.429952
 33.7394	0.429952
 33.7434	0.429952
 33.7474	0.429952
 33.7514	0.429952
 33.7554	0.429953
 33.7594	0.429953
 33.7634	0.429953
 33.7674	0.429953
 33.7714	0.429953
 33.7754	0.429953
 33.7794	0.429954
 33.7834	0.429954
 33.7874	0.429954
 33.7914	0.429954
 33.7954	0.429954
 33.7994	0.429955
 33.8034	0.429955
 33.8074	0.429955
 33.8114	0.429955
 33.8154	0.429955
 33.8194	0.429956
 33.8234	0.429956
 33.8274	0.429956
 33.8314	0.429956
 33.8354	0.429956
 33.8394	0.429956
 33.8434	0.429957
 33.8474	0.429957
 33.8514	0.429957
 33.8554	0.429957
 33.8594	0.429957
 33.8634	0.429958
 33.8674	0.429958
 33.8714	0.429958
 33.8754	0.429958
 33.8794	0.429958
 33.8834	0.429959
 33.8874	0.429959
 33.8914	0.429959
 33.8954	0.429959
 33.8994	0.429959
 33.9034	0.429959
 33.9074	0.42996
 33.9114	0.42996
 33.9154	0.42996
 33.9194	0.42996
 33.9234	0.42996
 33.9274	0.429961
 33.9314	0.429961
 33.9354	0.429961
 33.9394	0.429961
 33.9434	0.429961
 33.9474	0.429961
 33.9514	0.429962
 33.9554	0.429962
 33.9594	0.429962
 33.9634	0.429962
 33.9674	0.429962
 33.9714	0.429963
 33.9754	0.429963
 33.9794	0.429963
 33.9834	0.429963
 33.9874	0.429963
 33.9914	0.429964
 33.9954	0.429964
 33.9994	0.429964
 34.0034	0.429964
 34.0074	0.429964
 34.0114	0.429964
 34.0154	0.429965
 34.0194	0.429965
 34.0234	0.429965
 34.0274	0.429965
 34.0314	0.429965
 34.0354	0.429966
 34.0394	0.429966
 34.0434	0.429966
 34.0474	0.429966
 34.0514	0.429966
 34.0554	0.429966
 34.0594	0.429967
 34.0634	0.429967
 34.0674	0.429967
 34.0714	0.429967
 34.0754	0.429967
 34.0794	0.429968
 34.0834	0.429968
 34.0874	0.429968
 34.0914	0.429968
 34.0954	0.429968
 34.0994	0.429969
 34.1034	0.429969
 34.1074	0.429969
 34.1114	0.429969
 34.1154	0.429969
 34.1194	0.429969
 34.1234	0.42997
 34.1274	0.42997
 34.1314	0.42997
 34.1354	0.42997
 34.1394	0.42997
 34.1434	0.429971
 34.1474	0.429971
 34.1514	0.429971
 34.1554	0.429971
 34.1594	0.429971
 34.1634	0.429971
 34.1674	0.429972
 34.1714	0.429972
 34.1754	0.429972
 34.1794	0.429972
 34.1834	0.429972
 34.1874	0.429973
 34.1914	0.429973
 34.1954	0.429973
 34.1994	0.429973
 34.2034	0.429973
 34.2074	0.429974
 34.2114	0.429974
 34.2154	0.429974
 34.2194	0.429974
 34.2234	0.429974
 34.2274	0.429974
 34.2314	0.429975
 34.2354	0.429975
 34.2394	0.429975
 34.2434	0.429975
 34.2474	0.429975
 34.2514	0.429976
 34.2554	0.429976
 34.2594	0.429976
 34.2634	0.429976
 34.2674	0.429976
 34.2714	0.429976
 34.2754	0.429977
 34.2794	0.429977
 34.2834	0.429977
 34.2874	0.429977
 34.2914	0.429977
 34.2954	0.429978
 34.2994	0.429978
 34.3034	0.429978
 34.3074	0.429978
 34.3114	0.429978
 34.3154	0.429979
 34.3194	0.429979
 34.3234	0.429979
 34.3274	0.429979
 34.3314	0.429979
 34.3354	0.429979
 34.3394	0.42998
 34.3434	0.42998
 34.3474	0.42998
 34.3514	0.42998
 34.3554	0.42998
 34.3594	0.429981
 34.3634	0.429981
 34.3674	0.429981
 34.3714	0.429981
 34.3754	0.429981
 34.3794	0.429982
 34.3834	0.429982
 34.3874	0.429982
 34.3914	0.429982
 34.3954	0.429982
 34.3994	0.429982
 34.4034	0.429983
 34.4074	0.429983
 34.4114	0.429983
 34.4154	0.429983
 34.4194	0.429983
 34.4234	0.429984
 34.4274	0.429984
 34.4314	0.429984
 34.4354	0.429984
 34.4394	0.429984
 34.4434	0.429984
 34.4474	0.429985
 34.4514	0.429985
 34.4554	0.429985
 34.4594	0.429985
 34.4634	0.429985
 34.4674	0.429986
 34.4714	0.429986
 34.4754	0.429986
 34.4794	0.429986
 34.4834	0.429986
 34.4874	0.429987
 34.4914	0.429987
 34.4954	0.429987
 34.4994	0.429987
 34.5035	0.429987
 34.5075	0.429987
 34.5115	0.429988
 34.5155	0.429988
 34.5195	0.429988
 34.5235	0.429988
 34.5275	0.429988
 34.5315	0.429989
 34.5355	0.429989
 34.5395	0.429989
 34.5435	0.429989
 34.5475	0.429989
 34.5515	0.429989
 34.5555	0.42999
 34.5595	0.42999
 34.5635	0.42999
 34.5675	0.42999
 34.5715	0.42999
 34.5755	0.429991
 34.5795	0.429991
 34.5835	0.429991
 34.5875	0.429991
 34.5915	0.429991
 34.5955	0.429992
 34.5995	0.429992
 34.6035	0.429992
 34.6075	0.429992
 34.6115	0.429992
 34.6155	0.429992
 34.6195	0.429993
 34.6235	0.429993
 34.6275	0.429993
 34.6315	0.429993
 34.6355	0.429993
 34.6395	0.429994
 34.6435	0.429994
 34.6475	0.429994
 34.6515	0.429994
 34.6555	0.429994
 34.6595	0.429994
 34.6635	0.429995
 34.6675	0.429995
 34.6715	0.429995
 34.6755	0.429995
 34.6795	0.429995
 34.6835	0.429996
 34.6875	0.429996
 34.6915	0.429996
 34.6955	0.429996
 34.6995	0.429996
 34.7035	0.429997
 34.7075	0.429997
 34.7115	0.429997
 34.7155	0.429997
 34.7195	0.429997
 34.7235	0.429997
 34.7275	0.429998
 34.7315	0.429998
 34.7355	0.429998
 34.7395	0.429998
 34.7435	0.429998
 34.7475	0.429999
 34.7515	0.429999
 34.7555	0.429999
 34.7595	0.429999
 34.7635	0.429999
 34.7675	0.43
 34.7715	0.43
 34.7755	0.43
 34.7795	0.43
 34.7835	0.43
 34.7875	0.43
 34.7915	0.430001
 34.7955	0.430001
 34.7995	0.430001
 34.8035	0.430001
 34.8075	0.430001
 34.8115	0.430002
 34.8155	0.430002
 34.8195	0.430002
 34.8235	0.430002
 34.8275	0.430002
 34.8315	0.430002
 34.8355	0.430003
 34.8395	0.430003
 34.8435	0.430003
 34.8475	0.430003
 34.8515	0.430003
 34.8555	0.430004
 34.8595	0.430004
 34.8635	0.430004
 34.8675	0.430004
 34.8715	0.430004
 34.8755	0.430005
 34.8795	0.430005
 34.8835	0.430005
 34.8875	0.430005
 34.8915	0.430005
 34.8955	0.430005
 34.8995	0.430006
 34.9035	0.430006
 34.9075	0.430006
 34.9115	0.430006
 34.9155	0.430006
 34.9195	0.430007
 34.9235	0.430007
 34.9275	0.430007
 34.9315	0.430007
 34.9355	0.430007
 34.9395	0.430007
 34.9435	0.430008
 34.9475	0.430008
 34.9515	0.430008
 34.9555	0.430008
 34.9595	0.430008
 34.9635	0.430009
 34.9675	0.430009
 34.9715	0.430009
 34.9755	0.430009
 34.9795	0.430009
 34.9835	0.43001
 34.9875	0.43001
 34.9915	0.43001
 34.9955	0.43001
 34.9995	0.43001
 35.0035	0.43001
 35.0075	0.430011
 35.0115	0.430011
 35.0155	0.430011
 35.0195	0.430011
 35.0235	0.430011
 35.0275	0.430012
 35.0315	0.430012
 35.0355	0.430012
 35.0395	0.430012
 35.0435	0.430012
 35.0475	0.430012
 35.0515	0.430013
 35.0555	0.430013
 35.0595	0.430013
 35.0635	0.430013
 35.0675	0.430013
 35.0715	0.430013
 35.0755	0.430014
 35.0795	0.430014
 35.0835	0.430014
 35.0875	0.430014
 35.0915	0.430014
 35.0955	0.430015
 35.0995	0.430015
 35.1035	0.430015
 35.1075	0.430015
 35.1115	0.430015
 35.1155	0.430015
 35.1195	0.430016
 35.1235	0.430016
 35.1275	0.430016
 35.1315	0.430016
 35.1355	0.430016
 35.1395	0.430016
 35.1435	0.430017
 35.1475	0.430017
 35.1515	0.430017
 35.1555	0.430017
 35.1595	0.430017
 35.1635	0.430018
 35.1675	0.430018
 35.1715	0.430018
 35.1755	0.430018
 35.1795	0.430018
 35.1835	0.430018
 35.1875	0.430019
 35.1915	0.430019
 35.1955	0.430019
 35.1995	0.430019
 35.2035	0.430019
 35.2075	0.430019
 35.2115	0.43002
 35.2155	0.43002
 35.2195	0.43002
 35.2235	0.43002
 35.2275	0.43002
 35.2315	0.430021
 35.2355	0.430021
 35.2395	0.430021
 35.2435	0.430021
 35.2475	0.430021
 35.2515	0.430021
 35.2555	0.430022
 35.2595	0.430022
 35.2635	0.430022
 35.2675	0.430022
 35.2715	0.430022
 35.2755	0.430023
 35.2795	0.430023
 35.2835	0.430023
 35.2875	0.430023
 35.2915	0.430023
 35.2955	0.430023
 35.2995	0.430024
 35.3035	0.430024
 35.3075	0.430024
 35.3115	0.430024
 35.3155	0.430024
 35.3195	0.430024
 35.3235	0.430025
 35.3275	0.430025
 35.3315	0.430025
 35.3355	0.430025
 35.3395	0.430025
 35.3435	0.430026
 35.3475	0.430026
 35.3515	0.430026
 35.3555	0.430026
 35.3595	0.430026
 35.3635	0.430026
 35.3675	0.430027
 35.3715	0.430027
 35.3755	0.430027
 35.3795	0.430027
 35.3835	0.430027
 35.3875	0.430027
 35.3915	0.430028
 35.3955	0.430028
 35.3995	0.430028
 35.4035	0.430028
 35.4075	0.430028
 35.4115	0.430029
 35.4155	0.430029
 35.4195	0.430029
 35.4235	0.430029
 35.4275	0.430029
 35.4315	0.430029
 35.4355	0.43003
 35.4395	0.43003
 35.4435	0.43003
 35.4475	0.43003
 35.4515	0.43003
 35.4555	0.43003
 35.4595	0.430031
 35.4635	0.430031
 35.4675	0.430031
 35.4715	0.430031
 35.4755	0.430031
 35.4795	0.430032
 35.4835	0.430032
 35.4875	0.430032
 35.4915	0.430032
 35.4955	0.430032
 35.4995	0.430032
 35.5036	0.430033
 35.5076	0.430033
 35.5116	0.430033
 35.5156	0.430033
 35.5196	0.430033
 35.5236	0.430034
 35.5276	0.430034
 35.5316	0.430034
 35.5356	0.430034
 35.5396	0.430034
 35.5436	0.430034
 35.5476	0.430035
 35.5516	0.430035
 35.5556	0.430035
 35.5596	0.430035
 35.5636	0.430035
 35.5676	0.430035
 35.5716	0.430036
 35.5756	0.430036
 35.5796	0.430036
 35.5836	0.430036
 35.5876	0.430036
 35.5916	0.430037
 35.5956	0.430037
 35.5996	0.430037
 35.6036	0.430037
 35.6076	0.430037
 35.6116	0.430037
 35.6156	0.430038
 35.6196	0.430038
 35.6236	0.430038
 35.6276	0.430038
 35.6316	0.430038
 35.6356	0.430038
 35.6396	0.430039
 35.6436	0.430039
 35.6476	0.430039
 35.6516	0.430039
 35.6556	0.430039
 35.6596	0.43004
 35.6636	0.43004
 35.6676	0.43004
 35.6716	0.43004
 35.6756	0.43004
 35.6796	0.43004
 35.6836	0.430041
 35.6876	0.430041
 35.6916	0.430041
 35.6956	0.430041
 35.6996	0.430041
 35.7036	0.430041
 35.7076	0.430042
 35.7116	0.430042
 35.7156	0.430042
 35.7196	0.430042
 35.7236	0.430042
 35.7276	0.430043
 35.7316	0.430043
 35.7356	0.430043
 35.7396	0.430043
 35.7436	0.430043
 35.7476	0.430043
 35.7516	0.430044
 35.7556	0.430044
 35.7596	0.430044
 35.7636	0.430044
 35.7676	0.430044
 35.7716	0.430045
 35.7756	0.430045
 35.7796	0.430045
 35.7836	0.430045
 35.7876	0.430045
 35.7916	0.430045
 35.7956	0.430046
 35.7996	0.430046
 35.8036	0.430046
 35.8076	0.430046
 35.8116	0.430046
 35.8156	0.430046
 35.8196	0.430047
 35.8236	0.430047
 35.8276	0.430047
 35.8316	0.430047
 35.8356	0.430047
 35.8396	0.430048
 35.8436	0.430048
 35.8476	0.430048
 35.8516	0.430048
 35.8556	0.430048
 35.8596	0.430048
 35.8636	0.430049
 35.8676	0.430049
 35.8716	0.430049
 35.8756	0.430049
 35.8796	0.430049
 35.8836	0.430049
 35.8876	0.43005
 35.8916	0.43005
 35.8956	0.43005
 35.8996	0.43005
 35.9036	0.43005
 35.9076	0.430051
 35.9116	0.430051
 35.9156	0.430051
 35.9196	0.430051
 35.9236	0.430051
 35.9276	0.430051
 35.9316	0.430052
 35.9356	0.430052
 35.9396	0.430052
 35.9436	0.430052
 35.9476	0.430052
 35.9516	0.430053
 35.9556	0.430053
 35.9596	0.430053
 35.9636	0.430053
 35.9676	0.430053
 35.9716	0.430053
 35.9756	0.430054
 35.9796	0.430054
 35.9836	0.430054
 35.9876	0.430054
 35.9916	0.430054
 35.9956	0.430054
 35.9996	0.430055
 36.0036	0.430055
 36.0076	0.430055
 36.0116	0.430055
 36.0156	0.430055
 36.0196	0.430056
 36.0236	0.430056
 36.0276	0.430056
 36.0316	0.430056
 36.0356	0.430056
 36.0396	0.430056
 36.0436	0.430057
 36.0476	0.430057
 36.0516	0.430057
 36.0556	0.430057
 36.0596	0.430057
 36.0636	0.430057
 36.0676	0.430058
 36.0716	0.430058
 36.0756	0.430058
 36.0796	0.430058
 36.0836	0.430058
 36.0876	0.430059
 36.0916	0.430059
 36.0956	0.430059
 36.0996	0.430059
 36.1036	0.430059
 36.1076	0.430059
 36.1116	0.43006
 36.1156	0.43006
 36.1196	0.43006
 36.1236	0.43006
 36.1276	0.43006
 36.1316	0.43006
 36.1356	0.430061
 36.1396	0.430061
 36.1436	0.430061
 36.1476	0.430061
 36.1516	0.430061
 36.1556	0.430062
 36.1596	0.430062
 36.1636	0.430062
 36.1676	0.430062
 36.1716	0.430062
 36.1756	0.430062
 36.1796	0.430063
 36.1836	0.430063
 36.1876	0.430063
 36.1916	0.430063
 36.1956	0.430063
 36.1996	0.430064
 36.2036	0.430064
 36.2076	0.430064
 36.2116	0.430064
 36.2156	0.430064
 36.2196	0.430064
 36.2236	0.430065
 36.2276	0.430065
 36.2316	0.430065
 36.2356	0.430065
 36.2396	0.430065
 36.2436	0.430065
 36.2476	0.430066
 36.2516	0.430066
 36.2556	0.430066
 36.2596	0.430066
 36.2636	0.430066
 36.2676	0.430067
 36.2716	0.430067
 36.2756	0.430067
 36.2796	0.430067
 36.2836	0.430067
 36.2876	0.430067
 36.2916	0.430068
 36.2956	0.430068
 36.2996	0.430068
 36.3036	0.430068
 36.3076	0.430068
 36.3116	0.430068
 36.3156	0.430069
 36.3196	0.430069
 36.3236	0.430069
 36.3276	0.430069
 36.3316	0.430069
 36.3356	0.43007
 36.3396	0.43007
 36.3436	0.43007
 36.3476	0.43007
 36.3516	0.43007
 36.3556	0.43007
 36.3596	0.430071
 36.3636	0.430071
 36.3676	0.430071
 36.3716	0.430071
 36.3756	0.430071
 36.3796	0.430071
 36.3836	0.430072
 36.3876	0.430072
 36.3916	0.430072
 36.3956	0.430072
 36.3996	0.430072
 36.4036	0.430073
 36.4076	0.430073
 36.4116	0.430073
 36.4156	0.430073
 36.4196	0.430073
 36.4236	0.430073
 36.4276	0.430074
 36.4316	0.430074
 36.4356	0.430074
 36.4396	0.430074
 36.4436	0.430074
 36.4476	0.430075
 36.4516	0.430075
 36.4556	0.430075
 36.4596	0.430075
 36.4636	0.430075
 36.4676	0.430075
 36.4716	0.430076
 36.4756	0.430076
 36.4796	0.430076
 36.4836	0.430076
 36.4876	0.430076
 36.4916	0.430076
 36.4956	0.430077
 36.4996	0.430077
 36.5037	0.430077
 36.5077	0.430077
 36.5117	0.430077
 36.5157	0.430078
 36.5197	0.430078
 36.5237	0.430078
 36.5277	0.430078
 36.5317	0.430078
 36.5357	0.430078
 36.5397	0.430079
 36.5437	0.430079
 36.5477	0.430079
 36.5517	0.430079
 36.5557	0.430079
 36.5597	0.430079
 36.5637	0.43008
 36.5677	0.43008
 36.5717	0.43008
 36.5757	0.43008
 36.5797	0.43008
 36.5837	0.430081
 36.5877	0.430081
 36.5917	0.430081
 36.5957	0.430081
 36.5997	0.430081
 36.6037	0.430081
 36.6077	0.430082
 36.6117	0.430082
 36.6157	0.430082
 36.6197	0.430082
 36.6237	0.430082
 36.6277	0.430082
 36.6317	0.430083
 36.6357	0.430083
 36.6397	0.430083
 36.6437	0.430083
 36.6477	0.430083
 36.6517	0.430084
 36.6557	0.430084
 36.6597	0.430084
 36.6637	0.430084
 36.6677	0.430084
 36.6717	0.430084
 36.6757	0.430085
 36.6797	0.430085
 36.6837	0.430085
 36.6877	0.430085
 36.6917	0.430085
 36.6957	0.430086
 36.6997	0.430086
 36.7037	0.430086
 36.7077	0.430086
 36.7117	0.430086
 36.7157	0.430086
 36.7197	0.430087
 36.7237	0.430087
 36.7277	0.430087
 36.7317	0.430087
 36.7357	0.430087
 36.7397	0.430087
 36.7437	0.430088
 36.7477	0.430088
 36.7517	0.430088
 36.7557	0.430088
 36.7597	0.430088
 36.7637	0.430089
 36.7677	0.430089
 36.7717	0.430089
 36.7757	0.430089
 36.7797	0.430089
 36.7837	0.430089
 36.7877	0.43009
 36.7917	0.43009
 36.7957	0.43009
 36.7997	0.43009
 36.8037	0.43009
 36.8077	0.43009
 36.8117	0.430091
 36.8157	0.430091
 36.8197	0.430091
 36.8237	0.430091
 36.8277	0.430091
 36.8317	0.430092
 36.8357	0.430092
 36.8397	0.430092
 36.8437	0.430092
 36.8477	0.430092
 36.8517	0.430092
 36.8557	0.430093
 36.8597	0.430093
 36.8637	0.430093
 36.8677	0.430093
 36.8717	0.430093
 36.8757	0.430093
 36.8797	0.430094
 36.8837	0.430094
 36.8877	0.430094
 36.8917	0.430094
 36.8957	0.430094
 36.8997	0.430095
 36.9037	0.430095
 36.9077	0.430095
 36.9117	0.430095
 36.9157	0.430095
 36.9197	0.430095
 36.9237	0.430096
 36.9277	0.430096
 36.9317	0.430096
 36.9357	0.430096
 36.9397	0.430096
 36.9437	0.430097
 36.9477	0.430097
 36.9517	0.430097
 36.9557	0.430097
 36.9597	0.430097
 36.9637	0.430097
 36.9677	0.430098
 36.9717	0.430098
 36.9757	0.430098
 36.9797	0.430098
 36.9837	0.430098
 36.9877	0.430098
 36.9917	0.430099
 36.9957	0.430099
 36.9997	0.430099
 37.0037	0.430099
 37.0077	0.430099
 37.0117	0.4301
 37.0157	0.4301
 37.0197	0.4301
 37.0237	0.4301
 37.0277	0.4301
 37.0317	0.4301
 37.0357	0.430101
 37.0397	0.430101
 37.0437	0.430101
 37.0477	0.430101
 37.0517	0.430101
 37.0557	0.430101
 37.0597	0.430102
 37.0637	0.430102
 37.0677	0.430102
 37.0717	0.430102
 37.0757	0.430102
 37.0797	0.430103
 37.0837	0.430103
 37.0877	0.430103
 37.0917	0.430103
 37.0957	0.430103
 37.0997	0.430103
 37.1037	0.430104
 37.1077	0.430104
 37.1117	0.430104
 37.1157	0.430104
 37.1197	0.430104
 37.1237	0.430104
 37.1277	0.430105
 37.1317	0.430105
 37.1357	0.430105
 37.1397	0.430105
 37.1437	0.430105
 37.1477	0.430106
 37.1517	0.430106
 37.1557	0.430106
 37.1597	0.430106
 37.1637	0.430106
 37.1677	0.430106
 37.1717	0.430107
 37.1757	0.430107
 37.1797	0.430107
 37.1837	0.430107
 37.1877	0.430107
 37.1917	0.430108
 37.1957	0.430108
 37.1997	0.430108
 37.2037	0.430108
 37.2077	0.430108
 37.2117	0.430108
 37.2157	0.430109
 37.2197	0.430109
 37.2237	0.430109
 37.2277	0.430109
 37.2317	0.430109
 37.2357	0.430109
 37.2397	0.43011
 37.2437	0.43011
 37.2477	0.43011
 37.2517	0.43011
 37.2557	0.43011
 37.2597	0.430111
 37.2637	0.430111
 37.2677	0.430111
 37.2717	0.430111
 37.2757	0.430111
 37.2797	0.430111
 37.2837	0.430112
 37.2877	0.430112
 37.2917	0.430112
 37.2957	0.430112
 37.2997	0.430112
 37.3037	0.430112
 37.3077	0.430113
 37.3117	0.430113
 37.3157	0.430113
 37.3197	0.430113
 37.3237	0.430113
 37.3277	0.430114
 37.3317	0.430114
 37.3357	0.430114
 37.3397	0.430114
 37.3437	0.430114
 37.3477	0.430114
 37.3517	0.430115
 37.3557	0.430115
 37.3597	0.430115
 37.3637	0.430115
 37.3677	0.430115
 37.3717	0.430115
 37.3757	0.430116
 37.3797	0.430116
 37.3837	0.430116
 37.3877	0.430116
 37.3917	0.430116
 37.3957	0.430117
 37.3997	0.430117
 37.4037	0.430117
 37.4077	0.430117
 37.4117	0.430117
 37.4157	0.430117
 37.4197	0.430118
 37.4237	0.430118
 37.4277	0.430118
 37.4317	0.430118
 37.4357	0.430118
 37.4397	0.430119
 37.4437	0.430119
 37.4477	0.430119
 37.4517	0.430119
 37.4557	0.430119
 37.4597	0.430119
 37.4637	0.43012
 37.4677	0.43012
 37.4717	0.43012
 37.4757	0.43012
 37.4797	0.43012
 37.4837	0.43012
 37.4877	0.430121
 37.4917	0.430121
 37.4957	0.430121
 37.4997	0.430121
 37.5038	0.430121
 37.5078	0.430122
 37.5118	0.430122
 37.5158	0.430122
 37.5198	0.430122
 37.5238	0.430122
 37.5278	0.430122
 37.5318	0.430123
 37.5358	0.430123
 37.5398	0.430123
 37.5438	0.430123
 37.5478	0.430123
 37.5518	0.430123
 37.5558	0.430124
 37.5598	0.430124
 37.5638	0.430124
 37.5678	0.430124
 37.5718	0.430124
 37.5758	0.430125
 37.5798	0.430125
 37.5838	0.430125
 37.5878	0.430125
 37.5918	0.430125
 37.5958	0.430125
 37.5998	0.430126
 37.6038	0.430126
 37.6078	0.430126
 37.6118	0.430126
 37.6158	0.430126
 37.6198	0.430126
 37.6238	0.430127
 37.6278	0.430127
 37.6318	0.430127
 37.6358	0.430127
 37.6398	0.430127
 37.6438	0.430128
 37.6478	0.430128
 37.6518	0.430128
 37.6558	0.430128
 37.6598	0.430128
 37.6638	0.430128
 37.6678	0.430129
 37.6718	0.430129
 37.6758	0.430129
 37.6798	0.430129
 37.6838	0.430129
 37.6878	0.43013
 37.6918	0.43013
 37.6958	0.43013
 37.6998	0.43013
 37.7038	0.43013
 37.7078	0.43013
 37.7118	0.430131
 37.7158	0.430131
 37.7198	0.430131
 37.7238	0.430131
 37.7278	0.430131
 37.7318	0.430131
 37.7358	0.430132
 37.7398	0.430132
 37.7438	0.430132
 37.7478	0.430132
 37.7518	0.430132
 37.7558	0.430133
 37.7598	0.430133
 37.7638	0.430133
 37.7678	0.430133
 37.7718	0.430133
 37.7758	0.430133
 37.7798	0.430134
 37.7838	0.430134
 37.7878	0.430134
 37.7918	0.430134
 37.7958	0.430134
 37.7998	0.430134
 37.8038	0.430135
 37.8078	0.430135
 37.8118	0.430135
 37.8158	0.430135
 37.8198	0.430135
 37.8238	0.430136
 37.8278	0.430136
 37.8318	0.430136
 37.8358	0.430136
 37.8398	0.430136
 37.8438	0.430136
 37.8478	0.430137
 37.8518	0.430137
 37.8558	0.430137
 37.8598	0.430137
 37.8638	0.430137
 37.8678	0.430137
 37.8718	0.430138
 37.8758	0.430138
 37.8798	0.430138
 37.8838	0.430138
 37.8878	0.430138
 37.8918	0.430139
 37.8958	0.430139
 37.8998	0.430139
 37.9038	0.430139
 37.9078	0.430139
 37.9118	0.430139
 37.9158	0.43014
 37.9198	0.43014
 37.9238	0.43014
 37.9278	0.43014
 37.9318	0.43014
 37.9358	0.430141
 37.9398	0.430141
 37.9438	0.430141
 37.9478	0.430141
 37.9518	0.430141
 37.9558	0.430141
 37.9598	0.430142
 37.9638	0.430142
 37.9678	0.430142
 37.9718	0.430142
 37.9758	0.430142
 37.9798	0.430142
 37.9838	0.430143
 37.9878	0.430143
 37.9918	0.430143
 37.9958	0.430143
 37.9998	0.430143
 38.0038	0.430144
 38.0078	0.430144
 38.0118	0.430144
 38.0158	0.430144
 38.0198	0.430144
 38.0238	0.430144
 38.0278	0.430145
 38.0318	0.430145
 38.0358	0.430145
 38.0398	0.430145
 38.0438	0.430145
 38.0478	0.430145
 38.0518	0.430146
 38.0558	0.430146
 38.0598	0.430146
 38.0638	0.430146
 38.0678	0.430146
 38.0718	0.430147
 38.0758	0.430147
 38.0798	0.430147
 38.0838	0.430147
 38.0878	0.430147
 38.0918	0.430147
 38.0958	0.430148
 38.0998	0.430148
 38.1038	0.430148
 38.1078	0.430148
 38.1118	0.430148
 38.1158	0.430149
 38.1198	0.430149
 38.1238	0.430149
 38.1278	0.430149
 38.1318	0.430149
 38.1358	0.430149
 38.1398	0.43015
 38.1438	0.43015
 38.1478	0.43015
 38.1518	0.43015
 38.1558	0.43015
 38.1598	0.43015
 38.1638	0.430151
 38.1678	0.430151
 38.1718	0.430151
 38.1758	0.430151
 38.1798	0.430151
 38.1838	0.430152
 38.1878	0.430152
 38.1918	0.430152
 38.1958	0.430152
 38.1998	0.430152
 38.2038	0.430152
 38.2078	0.430153
 38.2118	0.430153
 38.2158	0.430153
 38.2198	0.430153
 38.2238	0.430153
 38.2278	0.430153
 38.2318	0.430154
 38.2358	0.430154
 38.2398	0.430154
 38.2438	0.430154
 38.2478	0.430154
 38.2518	0.430155
 38.2558	0.430155
 38.2598	0.430155
 38.2638	0.430155
 38.2678	0.430155
 38.2718	0.430155
 38.2758	0.430156
 38.2798	0.430156
 38.2838	0.430156
 38.2878	0.430156
 38.2918	0.430156
 38.2958	0.430156
 38.2998	0.430157
 38.3038	0.430157
 38.3078	0.430157
 38.3118	0.430157
 38.3158	0.430157
 38.3198	0.430158
 38.3238	0.430158
 38.3278	0.430158
 38.3318	0.430158
 38.3358	0.430158
 38.3398	0.430158
 38.3438	0.430159
 38.3478	0.430159
 38.3518	0.430159
 38.3558	0.430159
 38.3598	0.430159
 38.3638	0.43016
 38.3678	0.43016
 38.3718	0.43016
 38.3758	0.43016
 38.3798	0.43016
 38.3838	0.43016
 38.3878	0.430161
 38.3918	0.430161
 38.3958	0.430161
 38.3998	0.430161
 38.4038	0.430161
 38.4078	0.430161
 38.4118	0.430162
 38.4158	0.430162
 38.4198	0.430162
 38.4238	0.430162
 38.4278	0.430162
 38.4318	0.430163
 38.4358	0.430163
 38.4398	0.430163
 38.4438	0.430163
 38.4478	0.430163
 38.4518	0.430163
 38.4558	0.430164
 38.4598	0.430164
 38.4638	0.430164
 38.4678	0.430164
 38.4718	0.430164
 38.4758	0.430164
 38.4798	0.430165
 38.4838	0.430165
 38.4878	0.430165
 38.4918	0.430165
 38.4958	0.430165
 38.4998	0.430166
 38.5039	0.430166
 38.5079	0.430166
 38.5119	0.430166
 38.5159	0.430166
 38.5199	0.430166
 38.5239	0.430167
 38.5279	0.430167
 38.5319	0.430167
 38.5359	0.430167
 38.5399	0.430167
 38.5439	0.430167
 38.5479	0.430168
 38.5519	0.430168
 38.5559	0.430168
 38.5599	0.430168
 38.5639	0.430168
 38.5679	0.430169
 38.5719	0.430169
 38.5759	0.430169
 38.5799	0.430169
 38.5839	0.430169
 38.5879	0.430169
 38.5919	0.43017
 38.5959	0.43017
 38.5999	0.43017
 38.6039	0.43017
 38.6079	0.43017
 38.6119	0.430171
 38.6159	0.430171
 38.6199	0.430171
 38.6239	0.430171
 38.6279	0.430171
 38.6319	0.430171
 38.6359	0.430172
 38.6399	0.430172
 38.6439	0.430172
 38.6479	0.430172
 38.6519	0.430172
 38.6559	0.430172
 38.6599	0.430173
 38.6639	0.430173
 38.6679	0.430173
 38.6719	0.430173
 38.6759	0.430173
 38.6799	0.430174
 38.6839	0.430174
 38.6879	0.430174
 38.6919	0.430174
 38.6959	0.430174
 38.6999	0.430174
 38.7039	0.430175
 38.7079	0.430175
 38.7119	0.430175
 38.7159	0.430175
 38.7199	0.430175
 38.7239	0.430175
 38.7279	0.430176
 38.7319	0.430176
 38.7359	0.430176
 38.7399	0.430176
 38.7439	0.430176
 38.7479	0.430177
 38.7519	0.430177
 38.7559	0.430177
 38.7599	0.430177
 38.7639	0.430177
 38.7679	0.430177
 38.7719	0.430178
 38.7759	0.430178
 38.7799	0.430178
 38.7839	0.430178
 38.7879	0.430178
 38.7919	0.430178
 38.7959	0.430179
 38.7999	0.430179
 38.8039	0.430179
 38.8079	0.430179
 38.8119	0.430179
 38.8159	0.43018
 38.8199	0.43018
 38.8239	0.43018
 38.8279	0.43018
 38.8319	0.43018
 38.8359	0.43018
 38.8399	0.430181
 38.8439	0.430181
 38.8479	0.430181
 38.8519	0.430181
 38.8559	0.430181
 38.8599	0.430182
 38.8639	0.430182
 38.8679	0.430182
 38.8719	0.430182
 38.8759	0.430182
 38.8799	0.430182
 38.8839	0.430183
 38.8879	0.430183
 38.8919	0.430183
 38.8959	0.430183
 38.8999	0.430183
 38.9039	0.430183
 38.9079	0.430184
 38.9119	0.430184
 38.9159	0.430184
 38.9199	0.430184
 38.9239	0.430184
 38.9279	0.430185
 38.9319	0.430185
 38.9359	0.430185
 38.9399	0.430185
 38.9439	0.430185
 38.9479	0.430185
 38.9519	0.430186
 38.9559	0.430186
 38.9599	0.430186
 38.9639	0.430186
 38.9679	0.430186
 38.9719	0.430186
 38.9759	0.430187
 38.9799	0.430187
 38.9839	0.430187
 38.9879	0.430187
 38.9919	0.430187
 38.9959	0.430188
 38.9999	0.430188
 39.0039	0.430188
 39.0079	0.430188
 39.0119	0.430188
 39.0159	0.430188
 39.0199	0.430189
 39.0239	0.430189
 39.0279	0.430189
 39.0319	0.430189
 39.0359	0.430189
 39.0399	0.430189
 39.0439	0.43019
 39.0479	0.43019
 39.0519	0.43019
 39.0559	0.43019
 39.0599	0.43019
 39.0639	0.430191
 39.0679	0.430191
 39.0719	0.430191
 39.0759	0.430191
 39.0799	0.430191
 39.0839	0.430191
 39.0879	0.430192
 39.0919	0.430192
 39.0959	0.430192
 39.0999	0.430192
 39.1039	0.430192
 39.1079	0.430193
 39.1119	0.430193
 39.1159	0.430193
 39.1199	0.430193
 39.1239	0.430193
 39.1279	0.430193
 39.1319	0.430194
 39.1359	0.430194
 39.1399	0.430194
 39.1439	0.430194
 39.1479	0.430194
 39.1519	0.430194
 39.1559	0.430195
 39.1599	0.430195
 39.1639	0.430195
 39.1679	0.430195
 39.1719	0.430195
 39.1759	0.430196
 39.1799	0.430196
 39.1839	0.430196
 39.1879	0.430196
 39.1919	0.430196
 39.1959	0.430196
 39.1999	0.430197
 39.2039	0.430197
 39.2079	0.430197
 39.2119	0.430197
 39.2159	0.430197
 39.2199	0.430197
 39.2239	0.430198
 39.2279	0.430198
 39.2319	0.430198
 39.2359	0.430198
 39.2399	0.430198
 39.2439	0.430199
 39.2479	0.430199
 39.2519	0.430199
 39.2559	0.430199
 39.2599	0.430199
 39.2639	0.430199
 39.2679	0.4302
 39.2719	0.4302
 39.2759	0.4302
 39.2799	0.4302
 39.2839	0.4302
 39.2879	0.4302
 39.2919	0.430201
 39.2959	0.430201
 39.2999	0.430201
 39.3039	0.430201
 39.3079	0.430201
 39.3119	0.430202
 39.3159	0.430202
 39.3199	0.430202
 39.3239	0.430202
 39.3279	0.430202
 39.3319	0.430202
 39.3359	0.430203
 39.3399	0.430203
 39.3439	0.430203
 39.3479	0.430203
 39.3519	0.430203
 39.3559	0.430204
 39.3599	0.430204
 39.3639	0.430204
 39.3679	0.430204
 39.3719	0.430204
 39.3759	0.430204
 39.3799	0.430205
 39.3839	0.430205
 39.3879	0.430205
 39.3919	0.430205
 39.3959	0.430205
 39.3999	0.430205
 39.4039	0.430206
 39.4079	0.430206
 39.4119	0.430206
 39.4159	0.430206
 39.4199	0.430206
 39.4239	0.430207
 39.4279	0.430207
 39.4319	0.430207
 39.4359	0.430207
 39.4399	0.430207
 39.4439	0.430207
 39.4479	0.430208
 39.4519	0.430208
 39.4559	0.430208
 39.4599	0.430208
 39.4639	0.430208
 39.4679	0.430208
 39.4719	0.430209
 39.4759	0.430209
 39.4799	0.430209
 39.4839	0.430209
 39.4879	0.430209
 39.4919	0.43021
 39.4959	0.43021
 39.4999	0.43021
 39.504	0.43021
 39.508	0.43021
 39.512	0.43021
 39.516	0.430211
 39.52	0.430211
 39.524	0.430211
 39.528	0.430211
 39.532	0.430211
 39.536	0.430211
 39.54	0.430212
 39.544	0.430212
 39.548	0.430212
 39.552	0.430212
 39.556	0.430212
 39.56	0.430213
 39.564	0.430213
 39.568	0.430213
 39.572	0.430213
 39.576	0.430213
 39.58	0.430213
 39.584	0.430214
 39.588	0.430214
 39.592	0.430214
 39.596	0.430214
 39.6	0.430214
 39.604	0.430215
 39.608	0.430215
 39.612	0.430215
 39.616	0.430215
 39.62	0.430215
 39.624	0.430215
 39.628	0.430216
 39.632	0.430216
 39.636	0.430216
 39.64	0.430216
 39.644	0.430216
 39.648	0.430216
 39.652	0.430217
 39.656	0.430217
 39.66	0.430217
 39.664	0.430217
 39.668	0.430217
 39.672	0.430218
 39.676	0.430218
 39.68	0.430218
 39.684	0.430218
 39.688	0.430218
 39.692	0.430218
 39.696	0.430219
 39.7	0.430219
 39.704	0.430219
 39.708	0.430219
 39.712	0.430219
 39.716	0.430219
 39.72	0.43022
 39.724	0.43022
 39.728	0.43022
 39.732	0.43022
 39.736	0.43022
 39.74	0.430221
 39.744	0.430221
 39.748	0.430221
 39.752	0.430221
 39.756	0.430221
 39.76	0.430221
 39.764	0.430222
 39.768	0.430222
 39.772	0.430222
 39.776	0.430222
 39.78	0.430222
 39.784	0.430222
 39.788	0.430223
 39.792	0.430223
 39.796	0.430223
 39.8	0.430223
 39.804	0.430223
 39.808	0.430224
 39.812	0.430224
 39.816	0.430224
 39.82	0.430224
 39.824	0.430224
 39.828	0.430224
 39.832	0.430225
 39.836	0.430225
 39.84	0.430225
 39.844	0.430225
 39.848	0.430225
 39.852	0.430226
 39.856	0.430226
 39.86	0.430226
 39.864	0.430226
 39.868	0.430226
 39.872	0.430226
 39.876	0.430227
 39.88	0.430227
 39.884	0.430227
 39.888	0.430227
 39.892	0.430227
 39.896	0.430227
 39.9	0.430228
 39.904	0.430228
 39.908	0.430228
 39.912	0.430228
 39.916	0.430228
 39.92	0.430229
 39.924	0.430229
 39.928	0.430229
 39.932	0.430229
 39.936	0.430229
 39.94	0.430229
 39.944	0.43023
 39.948	0.43023
 39.952	0.43023
 39.956	0.43023
 39.96	0.43023
 39.964	0.43023
 39.968	0.430231
 39.972	0.430231
 39.976	0.430231
 39.98	0.430231
 39.984	0.430231
 39.988	0.430232
 39.992	0.430232
 39.996	0.430232
 40	0.430232
